timestamps,TP9,AF7,AF8,TP10,Right AUX,Marker0
1595390078.787,-77.637,-54.199,-42.480,-9.277,0.000,0
1595390078.791,-38.574,-51.270,-37.598,-0.977,0.000,0
1595390078.795,54.688,-57.129,-33.691,-0.488,0.000,0
1595390078.799,30.762,-64.941,-37.598,-9.766,0.000,0
1595390078.803,-63.965,-63.477,-40.039,-4.395,0.000,0
1595390078.807,-54.199,-62.012,-39.062,-7.324,0.000,0
1595390078.811,35.156,-58.105,-37.598,-16.113,0.000,0
1595390078.815,51.758,-48.340,-31.738,-3.418,0.000,0
1595390078.819,-35.156,-45.898,-28.320,8.789,0.000,0
1595390078.823,-70.312,-50.293,-34.668,10.254,0.000,0
1595390078.826,15.137,-45.898,-33.691,8.789,0.000,0
1595390078.830,70.312,-41.016,-31.738,0.977,0.000,0
1595390078.834,-12.695,-41.992,-34.668,-1.953,0.000,0
1595390078.838,-83.496,-44.922,-39.551,-2.441,0.000,0
1595390078.842,-16.113,-41.992,-40.039,-4.883,0.000,0
1595390078.846,57.129,-39.062,-41.016,-8.301,0.000,0
1595390078.850,9.766,-38.086,-38.086,-1.465,0.000,0
1595390078.854,-65.918,-42.969,-37.598,1.953,0.000,0
1595390078.858,-32.715,-46.875,-40.527,-4.883,0.000,0
1595390078.862,53.223,-40.039,-33.203,-7.324,0.000,0
1595390078.866,34.180,-40.527,-32.227,-6.836,0.000,0
1595390078.869,-59.082,-50.781,-41.992,-7.324,0.000,0
1595390078.873,-64.941,-58.105,-47.363,-7.324,0.000,0
1595390078.877,21.973,-57.129,-45.898,-11.230,0.000,0
1595390078.881,46.875,-55.664,-45.410,-10.742,0.000,0
1595390078.885,-36.133,-56.641,-41.504,-5.859,0.000,0
1595390078.889,-78.613,-51.270,-34.180,-6.348,0.000,0
1595390078.893,-3.906,-46.875,-29.297,-7.324,0.000,0
1595390078.897,52.734,-48.340,-34.180,-2.441,0.000,0
1595390078.901,-10.742,-45.410,-39.551,1.465,0.000,0
1595390078.905,-80.566,-40.039,-41.504,-0.977,0.000,0
1595390078.909,-24.902,-42.480,-36.133,-7.324,0.000,0
1595390078.912,66.895,-42.480,-28.809,-9.277,0.000,0
1595390078.916,24.414,-38.574,-27.344,-8.789,0.000,0
1595390078.920,-75.195,-40.527,-26.367,-7.324,0.000,0
1595390078.924,-54.199,-39.062,-21.484,-15.625,0.000,0
1595390078.928,37.109,-40.039,-24.902,-22.949,0.000,0
1595390078.932,28.320,-44.922,-29.297,-18.066,0.000,0
1595390078.936,-71.289,-43.457,-29.297,-30.762,0.000,0
1595390078.940,-92.773,-33.691,-28.809,-45.898,0.000,0
1595390078.944,-25.879,-33.203,-26.367,-56.152,0.000,0
1595390078.948,-20.508,-42.969,-31.738,-83.008,0.000,0
1595390078.951,-117.188,-41.504,-28.320,-96.680,0.000,0
1595390078.955,-171.875,-33.203,-20.508,-100.586,0.000,0
1595390078.959,-118.164,-45.410,-22.949,-122.070,0.000,0
1595390078.963,-84.961,-52.246,-21.973,-139.160,0.000,0
1595390078.967,-149.902,-37.109,-11.719,-143.066,0.000,0
1595390078.971,-237.305,-36.621,-16.602,-162.598,0.000,0
1595390078.975,-240.723,-47.852,-19.043,-202.148,0.000,0
1595390078.979,-169.434,-42.480,-18.555,-222.168,0.000,0
1595390078.983,-200.684,-37.109,-20.020,-231.934,0.000,0
1595390078.987,-332.520,-45.898,-23.926,-267.578,0.000,0
1595390078.991,-347.656,-51.270,-22.461,-287.109,0.000,0
1595390078.994,-251.953,-51.270,-25.879,-295.410,0.000,0
1595390078.998,-242.676,-43.945,-37.598,-299.316,0.000,0
1595390079.002,-346.191,-38.086,-36.133,-302.246,0.000,0
1595390079.006,-376.953,-36.133,-30.273,-304.688,0.000,0
1595390079.010,-282.227,-36.133,-32.227,-301.270,0.000,0
1595390079.014,-226.074,-42.969,-36.621,-296.387,0.000,0
1595390079.018,-288.086,-44.434,-37.109,-268.066,0.000,0
1595390079.022,-322.754,-41.504,-36.621,-246.094,0.000,0
1595390079.026,-228.516,-35.156,-37.598,-229.980,0.000,0
1595390079.030,-158.691,-39.551,-40.527,-218.262,0.000,0
1595390079.034,-207.031,-50.781,-51.270,-208.496,0.000,0
1595390079.037,-257.324,-44.922,-57.129,-181.152,0.000,0
1595390079.041,-202.148,-45.410,-51.270,-164.551,0.000,0
1595390079.045,-89.844,-45.898,-46.875,-150.879,0.000,0
1595390079.049,-80.566,-40.039,-45.898,-124.023,0.000,0
1595390079.053,-150.879,-43.457,-41.992,-90.332,0.000,0
1595390079.057,-133.789,-49.316,-44.434,-74.219,0.000,0
1595390079.061,-15.625,-43.945,-43.457,-63.477,0.000,0
1595390079.065,20.020,-40.527,-45.410,-42.480,0.000,0
1595390079.069,-67.871,-47.852,-44.922,-29.297,0.000,0
1595390079.073,-91.309,-49.805,-43.945,-22.461,0.000,0
1595390079.076,2.441,-50.781,-48.828,-13.184,0.000,0
1595390079.080,64.941,-60.059,-49.316,4.883,0.000,0
1595390079.084,12.695,-63.477,-45.898,9.277,0.000,0
1595390079.088,-41.016,-52.734,-38.086,17.090,0.000,0
1595390079.092,25.391,-52.734,-39.551,27.344,0.000,0
1595390079.096,110.840,-57.129,-42.480,38.574,0.000,0
1595390079.100,71.777,-49.316,-38.574,53.711,0.000,0
1595390079.104,-6.836,-47.363,-41.992,58.594,0.000,0
1595390079.108,24.414,-51.270,-46.387,65.430,0.000,0
1595390079.112,119.629,-47.363,-45.410,61.523,0.000,0
1595390079.116,117.676,-42.480,-42.480,70.801,0.000,0
1595390079.119,27.344,-46.387,-40.039,82.031,0.000,0
1595390079.123,21.484,-54.688,-42.480,77.637,0.000,0
1595390079.127,116.211,-55.664,-35.156,82.520,0.000,0
1595390079.131,144.531,-49.316,-29.785,86.426,0.000,0
1595390079.135,59.570,-45.898,-36.133,89.844,0.000,0
1595390079.139,19.043,-47.363,-40.039,86.914,0.000,0
1595390079.143,91.309,-49.316,-39.062,83.496,0.000,0
1595390079.147,150.879,-41.504,-33.691,90.332,0.000,0
1595390079.151,81.543,-40.527,-29.297,85.449,0.000,0
1595390079.155,-0.977,-46.875,-31.250,80.078,0.000,0
1595390079.159,52.734,-48.340,-33.203,78.613,0.000,0
1595390079.162,138.184,-48.828,-28.320,79.102,0.000,0
1595390079.166,99.121,-44.922,-25.391,83.496,0.000,0
1595390079.170,3.418,-47.363,-29.785,76.172,0.000,0
1595390079.174,25.391,-50.293,-28.809,70.801,0.000,0
1595390079.178,129.395,-51.758,-24.414,79.102,0.000,0
1595390079.182,130.371,-52.246,-23.926,82.520,0.000,0
1595390079.186,25.879,-50.781,-26.367,80.566,0.000,0
1595390079.190,10.742,-52.734,-26.367,82.031,0.000,0
1595390079.194,107.422,-49.805,-24.902,72.754,0.000,0
1595390079.198,138.672,-48.828,-21.484,71.289,0.000,0
1595390079.201,64.453,-45.410,-15.137,85.938,0.000,0
1595390079.205,13.672,-41.992,-18.555,81.055,0.000,0
1595390079.209,70.801,-42.480,-21.484,64.941,0.000,0
1595390079.213,129.395,-41.504,-23.926,64.941,0.000,0
1595390079.217,62.012,-47.852,-32.227,63.477,0.000,0
1595390079.221,-6.348,-51.270,-34.668,63.965,0.000,0
1595390079.225,42.480,-50.293,-23.926,67.871,0.000,0
1595390079.229,121.094,-49.805,-20.508,64.941,0.000,0
1595390079.233,87.402,-48.828,-25.879,65.430,0.000,0
1595390079.237,-8.301,-48.340,-21.484,60.547,0.000,0
1595390079.241,0.977,-46.387,-18.066,51.758,0.000,0
1595390079.244,96.680,-44.922,-20.508,48.828,0.000,0
1595390079.248,100.586,-41.992,-23.926,50.781,0.000,0
1595390079.252,4.395,-45.410,-26.855,49.316,0.000,0
1595390079.256,-18.555,-48.340,-30.762,47.852,0.000,0
1595390079.260,69.824,-49.316,-27.832,55.664,0.000,0
1595390079.264,103.516,-48.340,-26.367,52.734,0.000,0
1595390079.268,23.438,-41.504,-25.879,47.852,0.000,0
1595390079.272,-32.227,-47.363,-25.879,52.734,0.000,0
1595390079.276,25.879,-53.223,-25.879,50.781,0.000,0
1595390079.280,97.168,-49.805,-25.391,51.758,0.000,0
1595390079.284,47.363,-52.246,-27.344,48.828,0.000,0
1595390079.287,-38.086,-52.734,-31.250,32.715,0.000,0
1595390079.291,1.465,-55.664,-33.203,31.250,0.000,0
1595390079.295,88.379,-55.176,-28.809,38.574,0.000,0
1595390079.299,63.965,-46.387,-24.414,41.016,0.000,0
1595390079.303,-20.020,-42.969,-23.926,41.992,0.000,0
1595390079.307,-17.578,-45.898,-29.785,35.156,0.000,0
1595390079.311,67.383,-48.340,-29.297,31.250,0.000,0
1595390079.315,82.520,-52.246,-25.391,30.762,0.000,0
1595390079.319,-10.254,-60.059,-28.320,31.250,0.000,0
1595390079.323,-49.316,-62.500,-30.762,25.391,0.000,0
1595390079.326,41.992,-59.082,-27.832,21.973,0.000,0
1595390079.330,89.844,-50.781,-35.156,17.578,0.000,0
1595390079.334,11.719,-48.828,-43.457,11.230,0.000,0
1595390079.338,-41.504,-56.152,-45.898,15.137,0.000,0
1595390079.342,12.207,-56.641,-44.434,3.418,0.000,0
1595390079.346,62.012,-60.059,-43.945,-11.719,0.000,0
1595390079.350,16.602,-63.965,-38.086,-2.441,0.000,0
1595390079.354,-51.758,-55.664,-30.273,8.789,0.000,0
1595390079.358,-21.973,-49.316,-27.344,11.230,0.000,0
1595390079.362,70.312,-48.828,-21.973,8.301,0.000,0
1595390079.366,57.129,-49.316,-20.996,8.301,0.000,0
1595390079.369,-42.969,-42.969,-22.461,11.230,0.000,0
1595390079.373,-44.922,-46.875,-24.414,12.207,0.000,0
1595390079.377,45.410,-58.105,-19.043,10.254,0.000,0
1595390079.381,72.266,-58.594,-20.508,9.766,0.000,0
1595390079.385,-5.859,-58.105,-20.996,20.508,0.000,0
1595390079.389,-41.992,-58.105,-12.695,26.855,0.000,0
1595390079.393,37.598,-59.570,-15.137,24.902,0.000,0
1595390079.397,88.379,-55.176,-20.996,23.926,0.000,0
1595390079.401,14.160,-52.246,-24.414,19.531,0.000,0
1595390079.405,-54.688,-53.223,-25.391,11.719,0.000,0
1595390079.409,-5.371,-50.781,-28.809,8.789,0.000,0
1595390079.412,77.148,-47.363,-23.438,9.766,0.000,0
1595390079.416,33.691,-48.340,-19.043,12.207,0.000,0
1595390079.420,-58.594,-57.617,-19.531,13.184,0.000,0
1595390079.424,-41.016,-59.570,-14.160,12.207,0.000,0
1595390079.428,53.711,-54.199,-12.207,13.184,0.000,0
1595390079.432,54.199,-53.223,-16.113,13.184,0.000,0
1595390079.436,-44.922,-53.223,-11.719,15.137,0.000,0
1595390079.440,-54.199,-53.711,-6.348,16.602,0.000,0
1595390079.444,37.598,-50.781,-9.277,14.648,0.000,0
1595390079.448,66.406,-50.781,-8.789,17.578,0.000,0
1595390079.451,-10.254,-48.340,-11.230,16.113,0.000,0
1595390079.455,-58.105,-43.457,-21.484,10.254,0.000,0
1595390079.459,21.484,-41.016,-19.043,16.113,0.000,0
1595390079.463,87.402,-39.062,-11.719,18.555,0.000,0
1595390079.467,12.207,-41.504,-17.090,17.090,0.000,0
1595390079.471,-67.383,-46.387,-19.531,19.043,0.000,0
1595390079.475,-17.578,-49.805,-16.113,18.066,0.000,0
1595390079.479,65.918,-53.711,-20.020,8.789,0.000,2
1595390079.483,35.156,-53.711,-25.879,3.906,0.000,0
1595390079.487,-58.594,-46.875,-26.855,8.301,0.000,0
1595390079.491,-41.992,-47.852,-28.320,11.230,0.000,0
1595390079.494,54.688,-45.410,-30.762,8.301,0.000,0
1595390079.498,56.641,-40.527,-31.250,5.859,0.000,0
1595390079.502,-28.320,-47.852,-23.926,11.719,0.000,0
1595390079.506,-41.504,-49.316,-20.020,14.160,0.000,0
1595390079.510,39.551,-46.875,-16.602,3.906,0.000,0
1595390079.514,70.312,-43.457,-10.742,7.324,0.000,0
1595390079.518,-3.906,-43.945,-13.184,20.020,0.000,0
1595390079.522,-57.617,-45.410,-14.160,26.855,0.000,0
1595390079.526,7.324,-41.504,-13.672,19.531,0.000,0
1595390079.530,67.871,-45.410,-20.508,10.254,0.000,0
1595390079.534,15.625,-47.852,-18.555,13.184,0.000,0
1595390079.537,-61.035,-41.992,-12.207,15.137,0.000,0
1595390079.541,-28.809,-44.922,-17.578,3.418,0.000,0
1595390079.545,58.105,-44.922,-23.438,3.906,0.000,0
1595390079.549,41.016,-41.504,-21.973,19.043,0.000,0
1595390079.553,-48.828,-44.434,-19.043,20.996,0.000,0
1595390079.557,-44.922,-48.340,-15.137,15.625,0.000,0
1595390079.561,54.199,-48.828,-12.207,18.066,0.000,0
1595390079.565,68.848,-45.410,-18.555,24.414,0.000,0
1595390079.569,-28.320,-45.898,-20.508,17.090,0.000,0
1595390079.573,-62.500,-44.434,-14.648,14.648,0.000,0
1595390079.576,21.484,-40.527,-11.230,18.066,0.000,0
1595390079.580,81.055,-38.574,-10.254,23.438,0.000,0
1595390079.584,0.977,-43.945,-10.254,19.043,0.000,0
1595390079.588,-68.848,-45.410,-7.812,14.648,0.000,0
1595390079.592,-8.789,-38.574,-7.324,18.555,0.000,0
1595390079.596,65.918,-31.250,-10.254,8.789,0.000,0
1595390079.600,27.832,-33.203,-12.207,1.953,0.000,0
1595390079.604,-57.617,-44.434,-12.695,4.395,0.000,0
1595390079.608,-29.297,-42.969,-12.695,10.254,0.000,0
1595390079.612,65.918,-41.504,-9.766,10.742,0.000,0
1595390079.616,57.129,-39.551,-5.371,9.766,0.000,0
1595390079.619,-41.992,-39.551,-6.348,16.113,0.000,0
1595390079.623,-53.223,-41.504,-8.301,8.789,0.000,0
1595390079.627,38.086,-44.922,-9.277,-1.953,0.000,0
1595390079.631,59.570,-52.734,-16.113,-6.836,0.000,0
1595390079.635,-31.250,-50.293,-17.578,-3.906,0.000,0
1595390079.639,-72.266,-46.875,-14.160,-6.348,0.000,0
1595390079.643,7.812,-45.898,-11.719,-10.254,0.000,0
1595390079.647,62.012,-45.410,-12.695,-4.395,0.000,0
1595390079.651,0.488,-43.457,-16.602,0.488,0.000,0
1595390079.655,-63.965,-44.922,-19.531,-2.441,0.000,0
1595390079.659,-15.137,-47.363,-21.484,-4.883,0.000,0
1595390079.662,60.547,-42.480,-19.043,0.488,0.000,0
1595390079.666,20.020,-44.434,-22.949,1.465,0.000,0
1595390079.670,-71.289,-47.363,-29.297,-3.418,0.000,0
1595390079.674,-55.176,-46.875,-25.879,-1.953,0.000,0
1595390079.678,41.016,-40.039,-19.531,-3.418,0.000,0
1595390079.682,41.504,-36.133,-20.996,-6.348,0.000,0
1595390079.686,-46.875,-34.180,-23.438,-2.930,0.000,0
1595390079.690,-60.059,-36.133,-24.902,-8.301,0.000,0
1595390079.694,19.043,-40.039,-22.949,-11.230,0.000,0
1595390079.698,48.828,-38.574,-20.996,-7.324,0.000,0
1595390079.701,-19.043,-37.598,-15.625,-3.418,0.000,0
1595390079.705,-57.617,-38.574,-12.207,0.000,0.000,0
1595390079.709,-1.953,-45.898,-11.230,-1.465,0.000,0
1595390079.713,54.199,-50.293,-17.090,-2.930,0.000,0
1595390079.717,3.418,-44.434,-22.461,5.859,0.000,0
1595390079.721,-63.965,-42.969,-20.508,12.695,0.000,0
1595390079.725,-15.137,-46.875,-20.996,9.766,0.000,0
1595390079.729,66.895,-48.828,-22.461,6.348,0.000,0
1595390079.733,43.945,-50.781,-21.973,10.254,0.000,0
1595390079.737,-49.805,-52.246,-23.438,8.789,0.000,0
1595390079.741,-46.875,-50.781,-20.508,8.301,0.000,0
1595390079.744,50.293,-48.340,-13.184,8.789,0.000,0
1595390079.748,60.547,-45.898,-10.742,3.418,0.000,0
1595390079.752,-31.250,-48.340,-9.277,6.836,0.000,0
1595390079.756,-59.082,-52.734,-11.230,12.207,0.000,0
1595390079.760,26.367,-57.129,-19.043,3.906,0.000,0
1595390079.764,63.477,-60.547,-19.531,0.977,0.000,0
1595390079.768,-13.184,-60.059,-16.113,4.395,0.000,0
1595390079.772,-69.824,-58.594,-17.090,5.859,0.000,0
1595390079.776,-13.184,-59.570,-12.207,0.977,0.000,0
1595390079.780,60.059,-52.246,-4.883,2.930,0.000,0
1595390079.784,15.625,-41.992,1.465,13.184,0.000,0
1595390079.787,-57.617,-44.434,0.488,10.254,0.000,0
1595390079.791,-17.090,-48.828,-4.883,5.859,0.000,0
1595390079.795,57.617,-51.758,-9.277,1.465,0.000,0
1595390079.799,37.109,-54.199,-8.301,6.348,0.000,0
1595390079.803,-45.410,-53.711,-9.766,14.648,0.000,0
1595390079.807,-50.293,-52.734,-16.113,1.953,0.000,0
1595390079.811,40.039,-48.828,-14.160,0.977,0.000,0
1595390079.815,60.547,-48.828,-16.113,0.977,0.000,0
1595390079.819,-31.738,-54.199,-21.973,-3.418,0.000,0
1595390079.823,-68.359,-51.758,-21.973,0.488,0.000,0
1595390079.826,18.555,-51.270,-16.113,1.953,0.000,0
1595390079.830,70.312,-53.223,-17.578,6.836,0.000,0
1595390079.834,4.395,-50.293,-22.461,11.230,0.000,0
1595390079.838,-65.918,-54.688,-28.320,11.719,0.000,0
1595390079.842,-6.836,-55.176,-27.344,8.789,0.000,0
1595390079.846,76.172,-50.293,-23.438,15.137,0.000,0
1595390079.850,27.832,-48.340,-24.902,22.949,0.000,0
1595390079.854,-65.918,-51.270,-25.879,20.508,0.000,0
1595390079.858,-48.828,-59.082,-26.855,12.207,0.000,0
1595390079.862,51.758,-59.082,-28.809,5.371,0.000,0
1595390079.866,43.945,-49.805,-29.297,7.324,0.000,0
1595390079.869,-59.570,-48.828,-31.738,6.348,0.000,0
1595390079.873,-64.453,-58.105,-36.133,6.836,0.000,0
1595390079.877,30.273,-58.594,-33.203,4.883,0.000,0
1595390079.881,56.641,-54.688,-33.203,4.395,0.000,0
1595390079.885,-22.949,-49.316,-31.738,17.578,0.000,0
1595390079.889,-57.129,-43.945,-27.344,14.648,0.000,0
1595390079.893,26.367,-46.875,-27.344,16.113,0.000,0
1595390079.897,74.219,-50.293,-24.902,19.043,0.000,0
1595390079.901,5.859,-48.340,-20.996,14.160,0.000,0
1595390079.905,-60.059,-47.363,-22.461,20.508,0.000,0
1595390079.909,-19.043,-49.316,-23.926,12.695,0.000,0
1595390079.912,67.383,-44.922,-21.484,8.301,0.000,0
1595390079.916,30.762,-44.922,-19.043,11.230,0.000,0
1595390079.920,-63.477,-51.270,-15.625,15.137,0.000,0
1595390079.924,-47.852,-54.199,-16.113,11.230,0.000,0
1595390079.928,43.457,-50.781,-20.020,0.977,0.000,0
1595390079.932,46.875,-47.363,-21.484,-0.488,0.000,0
1595390079.936,-51.758,-55.176,-23.438,-2.441,0.000,0
1595390079.940,-75.684,-57.129,-20.996,-7.324,0.000,0
1595390079.944,18.066,-47.852,-20.996,-9.277,0.000,0
1595390079.948,64.941,-47.363,-26.855,-2.930,0.000,0
1595390079.951,-9.766,-49.805,-27.832,5.371,0.000,0
1595390079.955,-69.336,-48.828,-26.855,0.488,0.000,0
1595390079.959,-5.371,-47.363,-21.973,0.977,0.000,0
1595390079.963,63.477,-45.898,-20.508,4.883,0.000,0
1595390079.967,7.324,-47.852,-24.414,1.953,0.000,0
1595390079.971,-69.336,-48.828,-24.414,-1.465,0.000,0
1595390079.975,-23.926,-44.434,-21.484,-2.930,0.000,0
1595390079.979,61.523,-33.691,-17.090,-0.977,0.000,0
1595390079.983,26.855,-39.062,-14.648,-8.789,0.000,0
1595390079.987,-65.430,-51.270,-18.555,-13.184,0.000,0
1595390079.991,-48.828,-49.316,-19.531,-8.789,0.000,0
1595390079.994,42.480,-47.852,-20.996,-15.137,0.000,0
1595390079.998,51.270,-51.270,-26.855,-12.695,0.000,0
1595390080.002,-39.551,-49.316,-26.367,-7.812,0.000,0
1595390080.006,-74.219,-44.434,-26.367,-16.113,0.000,0
1595390080.010,18.555,-45.898,-24.414,-15.137,0.000,0
1595390080.014,58.594,-43.457,-21.484,-11.719,0.000,0
1595390080.018,-20.508,-42.480,-25.391,-6.348,0.000,0
1595390080.022,-64.453,-45.898,-25.879,-4.883,0.000,0
1595390080.026,5.371,-47.852,-25.391,-10.254,0.000,0
1595390080.030,63.965,-52.246,-30.762,-7.812,0.000,0
1595390080.034,6.348,-50.293,-26.855,-6.836,0.000,0
1595390080.037,-71.777,-50.293,-29.297,-8.789,0.000,0
1595390080.041,-42.969,-50.293,-27.832,-7.324,0.000,0
1595390080.045,45.898,-44.922,-19.531,-4.395,0.000,0
1595390080.049,28.809,-47.852,-21.484,-1.465,0.000,0
1595390080.053,-68.848,-51.758,-20.996,0.000,0.000,0
1595390080.057,-64.941,-50.781,-16.113,-6.836,0.000,0
1595390080.061,37.598,-49.316,-9.277,-9.766,0.000,0
1595390080.065,53.711,-47.852,-11.230,-3.906,0.000,0
1595390080.069,-44.434,-47.363,-13.672,5.859,0.000,0
1595390080.073,-81.543,-52.246,-18.066,0.000,0.000,0
1595390080.076,-1.953,-54.199,-20.020,-11.719,0.000,0
1595390080.080,54.688,-49.805,-21.484,-0.488,0.000,0
1595390080.084,-6.348,-51.758,-24.902,4.883,0.000,0
1595390080.088,-76.660,-58.594,-26.855,0.488,0.000,0
1595390080.092,-21.973,-55.664,-31.738,-5.371,0.000,0
1595390080.096,53.223,-53.711,-33.203,-10.742,0.000,0
1595390080.100,5.371,-58.594,-32.227,-6.348,0.000,0
1595390080.104,-72.754,-57.129,-30.762,0.488,0.000,0
1595390080.108,-31.250,-48.828,-24.414,-1.953,0.000,0
1595390080.112,55.176,-49.805,-24.902,-5.859,0.000,0
1595390080.116,38.574,-55.176,-31.250,0.977,0.000,0
1595390080.119,-48.340,-51.270,-33.203,1.953,0.000,0
1595390080.123,-54.199,-48.340,-33.691,-6.836,0.000,0
1595390080.127,37.598,-52.246,-29.785,-1.465,0.000,0
1595390080.131,64.453,-52.246,-28.320,6.348,0.000,0
1595390080.135,-21.973,-46.875,-25.391,9.277,0.000,0
1595390080.139,-71.777,-48.340,-22.461,0.000,0.000,0
1595390080.143,5.371,-51.270,-23.438,-11.230,0.000,0
1595390080.147,58.105,-47.363,-29.785,-11.719,0.000,0
1595390080.151,-13.184,-49.316,-33.203,-10.254,0.000,0
1595390080.155,-83.008,-52.734,-25.879,-7.324,0.000,0
1595390080.159,-37.598,-52.246,-26.367,-13.672,0.000,0
1595390080.162,44.434,-49.805,-32.227,-9.277,0.000,0
1595390080.166,10.254,-52.734,-34.180,-10.254,0.000,0
1595390080.170,-79.102,-48.828,-31.250,-13.184,0.000,0
1595390080.174,-59.570,-43.945,-27.832,-10.254,0.000,0
1595390080.178,31.738,-49.316,-31.250,-14.648,0.000,0
1595390080.182,35.645,-44.434,-31.738,-7.324,0.000,0
1595390080.186,-50.781,-41.504,-24.902,-5.371,0.000,0
1595390080.190,-65.430,-44.922,-21.973,-6.836,0.000,0
1595390080.194,25.879,-41.992,-21.484,-3.418,0.000,0
1595390080.198,58.594,-45.898,-20.996,-5.859,0.000,0
1595390080.201,-23.438,-45.410,-20.020,-2.441,0.000,0
1595390080.205,-70.801,-46.875,-26.367,2.930,0.000,0
1595390080.209,4.883,-44.434,-31.738,-0.977,0.000,0
1595390080.213,74.707,-41.016,-32.715,-2.441,0.000,0
1595390080.217,11.719,-45.410,-31.738,0.000,0.000,0
1595390080.221,-78.613,-41.992,-32.227,-3.906,0.000,0
1595390080.225,-40.527,-40.039,-32.715,-8.301,0.000,0
1595390080.229,40.039,-46.387,-31.250,-16.602,0.000,0
1595390080.233,18.066,-47.852,-31.738,-10.742,0.000,0
1595390080.237,-72.266,-50.293,-34.668,-9.277,0.000,0
1595390080.241,-62.500,-55.176,-37.598,-20.996,0.000,0
1595390080.244,27.832,-51.758,-35.156,-25.391,0.000,0
1595390080.248,31.738,-48.828,-35.645,-16.602,0.000,0
1595390080.252,-51.758,-49.316,-37.598,-10.742,0.000,0
1595390080.256,-79.102,-50.781,-35.156,-16.602,0.000,0
1595390080.260,8.789,-45.410,-34.668,-12.207,0.000,0
1595390080.264,53.223,-47.363,-39.551,-14.648,0.000,0
1595390080.268,-19.043,-52.734,-41.504,-8.789,0.000,0
1595390080.272,-68.848,-49.805,-40.527,-1.465,0.000,0
1595390080.276,-9.766,-52.246,-40.527,-12.207,0.000,0
1595390080.280,42.969,-56.641,-44.922,-16.602,0.000,0
1595390080.284,-15.137,-56.152,-46.875,-12.695,0.000,0
1595390080.287,-89.355,-56.641,-40.039,-10.742,0.000,0
1595390080.291,-48.828,-53.711,-35.645,-13.672,0.000,0
1595390080.295,34.668,-52.246,-36.621,-10.742,0.000,0
1595390080.299,12.695,-60.059,-41.504,-10.254,0.000,0
1595390080.303,-78.613,-63.965,-44.434,-17.090,0.000,0
1595390080.307,-72.266,-57.617,-43.945,-17.090,0.000,0
1595390080.311,19.531,-54.199,-43.457,-19.531,0.000,0
1595390080.315,33.691,-51.758,-40.527,-15.137,0.000,0
1595390080.319,-49.805,-46.875,-36.621,-5.371,0.000,0
1595390080.323,-73.242,-42.480,-34.180,1.953,0.000,0
1595390080.326,5.371,-41.016,-32.715,-13.672,0.000,0
1595390080.330,51.758,-43.457,-35.645,-23.438,0.000,0
1595390080.334,-19.531,-47.363,-35.645,-10.254,0.000,0
1595390080.338,-81.055,-50.293,-33.691,-9.766,0.000,0
1595390080.342,-19.043,-43.945,-32.715,-8.789,0.000,0
1595390080.346,55.176,-41.504,-35.156,-4.395,0.000,0
1595390080.350,12.695,-46.875,-45.410,-6.348,0.000,0
1595390080.354,-63.965,-45.410,-50.293,-2.441,0.000,0
1595390080.358,-41.992,-50.781,-44.922,-1.465,0.000,0
1595390080.362,31.738,-55.664,-37.109,-8.301,0.000,0
1595390080.366,28.320,-52.734,-29.785,-5.859,0.000,0
1595390080.369,-58.105,-57.129,-24.902,-1.465,0.000,0
1595390080.373,-72.754,-61.523,-24.902,-1.465,0.000,0
1595390080.377,21.973,-61.035,-28.320,8.301,0.000,0
1595390080.381,50.293,-56.641,-33.203,0.488,0.000,0
1595390080.385,-34.180,-58.594,-37.598,-7.324,0.000,0
1595390080.389,-72.754,-58.105,-40.527,-4.395,0.000,0
1595390080.393,-6.348,-53.223,-42.969,-15.137,0.000,0
1595390080.397,44.434,-57.129,-42.480,-15.625,0.000,0
1595390080.401,-15.625,-57.617,-41.016,-8.789,0.000,0
1595390080.405,-77.637,-52.734,-41.016,-2.930,0.000,0
1595390080.409,-16.602,-48.340,-34.668,-5.859,0.000,0
1595390080.412,58.594,-47.363,-32.715,-11.230,0.000,0
1595390080.416,13.184,-47.363,-34.668,-6.836,0.000,0
1595390080.420,-74.707,-49.316,-35.645,-4.395,0.000,0
1595390080.424,-62.012,-51.758,-39.551,-9.766,0.000,0
1595390080.428,27.344,-48.828,-40.039,-22.461,0.000,0
1595390080.432,25.879,-50.293,-36.621,-25.391,0.000,0
1595390080.436,-64.453,-58.594,-38.086,-18.066,0.000,0
1595390080.440,-79.590,-56.152,-41.016,-13.672,0.000,0
1595390080.444,7.324,-55.176,-40.039,-12.695,0.000,0
1595390080.448,48.340,-53.711,-41.992,-9.277,0.000,0
1595390080.451,-37.598,-54.688,-40.527,-5.859,0.000,0
1595390080.455,-89.844,-63.965,-40.527,-7.324,0.000,0
1595390080.459,-9.277,-60.547,-37.598,-12.695,0.000,0
1595390080.463,63.965,-54.688,-35.156,-8.301,0.000,0
1595390080.467,2.441,-54.199,-40.527,-4.395,0.000,0
1595390080.471,-73.730,-55.664,-48.340,-11.230,0.000,0
1595390080.475,-21.973,-56.641,-47.363,-1.465,0.000,0
1595390080.479,61.523,-49.805,-43.457,2.930,0.000,0
1595390080.483,28.809,-47.363,-45.410,-1.953,0.000,0
1595390080.487,-65.430,-50.293,-46.875,2.441,0.000,0
1595390080.491,-56.641,-53.711,-42.480,-3.906,0.000,0
1595390080.494,35.645,-56.152,-38.086,-4.883,0.000,0
1595390080.498,45.898,-50.781,-42.480,6.348,0.000,0
1595390080.502,-43.457,-50.293,-41.016,3.906,0.000,0
1595390080.506,-68.848,-52.734,-41.504,0.000,0.000,0
1595390080.510,13.672,-56.641,-48.340,-4.395,0.000,0
1595390080.514,51.758,-61.523,-53.223,-17.090,0.000,0
1595390080.518,-27.344,-58.594,-56.641,-15.137,0.000,0
1595390080.522,-73.242,-54.199,-47.363,0.977,0.000,0
1595390080.526,-4.883,-56.152,-38.086,0.977,0.000,0
1595390080.530,52.246,-57.129,-37.109,-11.719,0.000,0
1595390080.534,-1.953,-60.547,-40.039,-8.789,0.000,0
1595390080.537,-81.055,-62.012,-43.945,-3.906,0.000,0
1595390080.541,-45.898,-59.570,-44.922,-5.371,0.000,0
1595390080.545,33.691,-58.105,-43.457,-18.066,0.000,0
1595390080.549,16.113,-55.176,-41.016,-18.555,0.000,0
1595390080.553,-74.219,-53.223,-42.480,-10.742,0.000,0
1595390080.557,-79.102,-58.105,-41.016,-16.602,0.000,0
1595390080.561,19.531,-59.082,-37.109,-17.090,0.000,0
1595390080.565,42.969,-62.012,-35.645,-3.418,0.000,0
1595390080.569,-51.270,-59.082,-34.180,-6.836,0.000,0
1595390080.573,-86.914,-52.734,-40.527,-21.973,0.000,0
1595390080.576,-0.488,-48.828,-43.945,-21.973,0.000,0
1595390080.580,40.527,-47.363,-46.387,-25.391,0.000,0
1595390080.584,-38.086,-46.875,-51.758,-26.367,0.000,0
1595390080.588,-100.586,-48.828,-52.246,-25.879,0.000,0
1595390080.592,-47.363,-54.199,-49.805,-36.133,0.000,0
1595390080.596,31.738,-53.223,-50.781,-31.250,0.000,0
1595390080.600,-6.348,-56.641,-46.875,-25.391,0.000,0
1595390080.604,-91.797,-57.129,-43.457,-25.391,0.000,0
1595390080.608,-57.129,-56.641,-43.457,-20.508,0.000,0
1595390080.612,45.410,-51.758,-41.016,-7.324,0.000,0
1595390080.616,42.969,-44.434,-37.598,-0.488,0.000,0
1595390080.619,-56.152,-46.875,-41.992,-8.301,0.000,0
1595390080.623,-70.801,-52.246,-49.805,-10.254,0.000,0
1595390080.627,23.438,-47.852,-47.852,-13.184,0.000,0
1595390080.631,58.105,-46.387,-46.387,-9.766,0.000,0
1595390080.635,-31.738,-52.246,-47.363,-7.812,0.000,0
1595390080.639,-81.055,-54.688,-43.457,-10.742,0.000,0
1595390080.643,-5.371,-56.641,-44.434,-4.883,0.000,0
1595390080.647,52.246,-52.734,-42.480,-10.254,0.000,0
1595390080.651,-4.883,-49.805,-39.551,-16.602,0.000,0
1595390080.655,-71.777,-48.828,-41.504,-15.137,0.000,0
1595390080.659,-19.043,-44.434,-41.016,-13.672,0.000,0
1595390080.662,57.129,-41.992,-45.410,-6.836,0.000,0
1595390080.666,12.695,-45.898,-51.758,-7.324,0.000,0
1595390080.670,-70.312,-49.316,-52.246,-8.789,0.000,0
1595390080.674,-44.434,-49.805,-48.828,-9.277,0.000,0
1595390080.678,43.945,-49.805,-46.875,-13.672,0.000,0
1595390080.682,30.273,-48.828,-48.828,-16.602,0.000,0
1595390080.686,-69.824,-50.293,-55.664,-16.113,0.000,0
1595390080.690,-83.496,-51.270,-60.059,-18.555,0.000,0
1595390080.694,7.812,-51.758,-59.570,-30.273,0.000,0
1595390080.698,45.410,-48.828,-57.617,-18.555,0.000,0
1595390080.701,-38.086,-52.246,-60.059,-9.277,0.000,0
1595390080.705,-88.379,-52.734,-58.105,-10.742,0.000,0
1595390080.709,-17.090,-51.270,-49.316,-16.113,0.000,0
1595390080.713,38.086,-63.477,-54.688,-29.297,0.000,0
1595390080.717,-31.250,-65.918,-53.711,-24.902,0.000,0
1595390080.721,-105.469,-63.477,-51.270,-20.508,0.000,0
1595390080.725,-51.758,-60.547,-48.340,-26.367,0.000,0
1595390080.729,35.156,-53.223,-42.969,-27.344,0.000,0
1595390080.733,8.301,-52.734,-47.852,-13.184,0.000,0
1595390080.737,-84.473,-57.129,-46.875,-11.230,0.000,0
1595390080.741,-75.195,-56.641,-42.969,-23.438,0.000,0
1595390080.744,22.949,-53.223,-45.410,-19.531,0.000,0
1595390080.748,36.133,-48.340,-43.945,-13.672,0.000,0
1595390080.752,-55.664,-47.852,-41.016,-11.719,0.000,0
1595390080.756,-83.984,-51.270,-44.434,-15.137,0.000,0
1595390080.760,-0.488,-53.711,-46.875,-28.809,0.000,0
1595390080.764,43.945,-50.293,-45.410,-32.715,0.000,0
1595390080.768,-36.621,-54.199,-42.480,-28.320,0.000,0
1595390080.772,-86.914,-56.152,-44.434,-20.020,0.000,0
1595390080.776,-10.742,-47.852,-46.387,-17.090,0.000,0
1595390080.780,51.270,-44.922,-42.969,-17.090,0.000,0
1595390080.784,-6.836,-49.316,-43.457,-19.043,0.000,0
1595390080.787,-75.684,-47.363,-44.922,-19.043,0.000,0
1595390080.791,-27.344,-47.363,-42.480,-8.789,0.000,0
1595390080.795,53.711,-44.922,-43.457,-5.859,0.000,0
1595390080.799,35.645,-40.527,-49.316,-6.348,0.000,0
1595390080.803,-54.199,-46.875,-53.711,-4.883,0.000,0
1595390080.807,-59.570,-43.945,-49.316,0.977,0.000,0
1595390080.811,35.156,-41.504,-44.922,5.371,0.000,0
1595390080.815,55.664,-41.504,-43.457,4.883,0.000,0
1595390080.819,-31.738,-45.410,-41.992,5.371,0.000,0
1595390080.823,-73.730,-50.781,-43.945,-1.465,0.000,0
1595390080.826,2.930,-51.270,-47.363,-14.648,0.000,0
1595390080.830,54.199,-51.270,-45.898,-17.578,0.000,0
1595390080.834,-20.020,-51.270,-42.969,-16.602,0.000,0
1595390080.838,-78.125,-51.270,-43.945,-12.695,0.000,0
1595390080.842,-17.578,-44.434,-35.645,-11.719,0.000,0
1595390080.846,58.594,-44.434,-28.320,-15.625,0.000,0
1595390080.850,18.555,-53.223,-31.738,-8.789,0.000,0
1595390080.854,-73.242,-48.340,-37.598,-13.672,0.000,0
1595390080.858,-40.527,-43.945,-38.574,-10.254,0.000,0
1595390080.862,51.270,-47.852,-29.297,-1.465,0.000,0
1595390080.866,24.902,-48.340,-25.391,-9.277,0.000,0
1595390080.869,-69.336,-47.363,-30.273,-8.789,0.000,0
1595390080.873,-68.359,-47.852,-27.344,-9.766,0.000,0
1595390080.877,18.555,-48.828,-20.020,-20.996,0.000,0
1595390080.881,39.062,-56.641,-22.949,-19.531,0.000,0
1595390080.885,-53.711,-66.406,-29.297,-8.789,0.000,0
1595390080.889,-99.609,-64.453,-33.691,-16.113,0.000,0
1595390080.893,-14.648,-59.570,-37.109,-25.391,0.000,0
1595390080.897,46.387,-54.199,-36.133,-19.531,0.000,0
1595390080.901,-11.230,-53.711,-38.086,-13.672,0.000,0
1595390080.905,-84.961,-50.781,-40.039,-16.602,0.000,0
1595390080.909,-39.551,-48.828,-38.574,-13.672,0.000,0
1595390080.912,45.410,-49.805,-40.527,-7.812,0.000,0
1595390080.916,5.371,-54.199,-39.062,-4.395,0.000,0
1595390080.920,-78.125,-57.129,-31.250,-1.953,0.000,0
1595390080.924,-64.453,-55.176,-31.250,-11.230,0.000,0
1595390080.928,23.438,-58.594,-43.457,-13.672,0.000,0
1595390080.932,29.785,-57.617,-44.922,-12.695,0.000,0
1595390080.936,-65.918,-54.199,-41.504,-15.137,0.000,0
1595390080.940,-81.543,-52.246,-42.969,-12.207,0.000,0
1595390080.944,18.066,-50.293,-41.992,-17.578,0.000,0
1595390080.948,50.781,-49.316,-40.039,-13.184,0.000,0
1595390080.951,-43.945,-50.293,-40.527,-10.254,0.000,0
1595390080.955,-92.773,-55.664,-42.480,-12.207,0.000,0
1595390080.959,-5.859,-54.199,-38.086,-0.977,0.000,0
1595390080.963,43.945,-54.688,-37.109,4.883,0.000,0
1595390080.967,-28.809,-54.688,-42.969,-11.230,0.000,0
1595390080.971,-93.750,-50.781,-43.457,-12.207,0.000,0
1595390080.975,-44.434,-50.781,-46.387,-12.207,0.000,0
1595390080.979,44.922,-42.480,-45.410,-16.602,0.000,0
1595390080.983,18.066,-41.504,-40.039,-16.113,0.000,0
1595390080.987,-79.102,-52.734,-44.922,-17.090,0.000,0
1595390080.991,-67.383,-52.246,-45.410,-18.555,0.000,0
1595390080.994,14.648,-51.270,-44.922,-31.250,0.000,0
1595390080.998,14.160,-55.664,-46.387,-26.855,0.000,0
1595390081.002,-72.754,-56.641,-46.387,-19.531,0.000,0
1595390081.006,-98.145,-57.617,-51.758,-20.020,0.000,0
1595390081.010,-2.930,-58.105,-54.199,-22.461,0.000,0
1595390081.014,36.133,-56.641,-52.246,-19.043,0.000,0
1595390081.018,-54.688,-58.594,-52.734,-15.625,0.000,0
1595390081.022,-105.469,-56.641,-48.828,-21.484,0.000,0
1595390081.026,-33.203,-55.176,-41.992,-21.973,0.000,0
1595390081.030,32.227,-54.688,-47.363,-21.484,0.000,0
1595390081.034,-18.066,-50.293,-50.781,-20.020,0.000,0
1595390081.037,-89.844,-49.316,-47.363,-20.996,0.000,0
1595390081.041,-51.758,-47.363,-48.828,-21.973,0.000,0
1595390081.045,39.551,-51.758,-47.363,-13.184,0.000,0
1595390081.049,19.043,-51.758,-43.457,-7.812,0.000,0
1595390081.053,-73.730,-51.758,-42.969,-12.207,0.000,0
1595390081.057,-64.941,-53.223,-40.039,-14.160,0.000,0
1595390081.061,24.902,-46.387,-37.109,-14.160,0.000,0
1595390081.065,41.504,-41.016,-37.598,-4.395,0.000,0
1595390081.069,-51.758,-42.969,-42.480,-6.836,0.000,0
1595390081.073,-96.191,-48.340,-48.340,-20.996,0.000,0
1595390081.076,-12.207,-47.363,-46.875,-24.414,0.000,0
1595390081.080,37.598,-46.387,-45.410,-21.484,0.000,0
1595390081.084,-36.621,-47.852,-47.852,-17.578,0.000,0
1595390081.088,-91.309,-48.340,-49.805,-17.090,0.000,0
1595390081.092,-25.879,-50.293,-47.852,-7.812,0.000,0
1595390081.096,52.246,-49.316,-46.875,-8.789,0.000,0
1595390081.100,9.277,-50.293,-48.828,-12.695,0.000,0
1595390081.104,-73.730,-53.223,-50.293,-5.859,0.000,0
1595390081.108,-32.227,-59.082,-44.922,6.348,0.000,0
1595390081.112,57.617,-54.199,-41.504,9.766,0.000,0
1595390081.116,31.250,-40.039,-49.805,-9.277,0.000,0
1595390081.119,-71.289,-38.574,-58.594,-27.344,0.000,0
1595390081.123,-80.078,-40.527,-61.035,-33.691,0.000,0
1595390081.127,21.484,-41.992,-57.617,-22.461,0.000,0
1595390081.131,44.434,-35.156,-61.035,-22.461,0.000,0
1595390081.135,-47.363,-32.715,-66.895,-31.250,0.000,0
1595390081.139,-87.891,-35.156,-68.848,-30.762,0.000,0
1595390081.143,-6.348,-32.715,-65.918,-27.344,0.000,0
1595390081.147,51.758,-37.598,-57.617,-31.738,0.000,0
1595390081.151,-19.043,-45.898,-58.105,-39.551,0.000,0
1595390081.155,-87.891,-43.457,-58.594,-36.621,0.000,0
1595390081.159,-27.832,-36.133,-53.711,-25.879,0.000,0
1595390081.162,53.711,-34.180,-48.340,-19.531,0.000,0
1595390081.166,14.648,-40.527,-48.340,-15.137,0.000,0
1595390081.170,-67.871,-44.434,-51.758,-16.113,0.000,0
1595390081.174,-40.527,-41.016,-49.316,-20.996,0.000,0
1595390081.178,50.781,-41.016,-45.410,-16.602,0.000,0
1595390081.182,42.480,-49.316,-48.340,-10.254,0.000,0
1595390081.186,-52.246,-50.293,-52.246,-8.789,0.000,0
1595390081.190,-69.824,-43.945,-52.734,-12.695,0.000,0
1595390081.194,16.602,-44.922,-50.293,-19.531,0.000,0
1595390081.198,48.340,-46.387,-52.246,-15.625,0.000,0
1595390081.201,-33.691,-48.340,-55.176,-15.625,0.000,0
1595390081.205,-80.566,-45.410,-49.805,-15.625,0.000,0
1595390081.209,-4.395,-44.434,-47.852,-13.672,0.000,0
1595390081.213,61.035,-51.270,-48.340,-7.812,0.000,0
1595390081.217,0.000,-48.340,-46.387,-1.953,0.000,0
1595390081.221,-63.965,-41.504,-42.480,-5.859,0.000,0
1595390081.225,-17.090,-46.875,-41.992,-11.719,0.000,0
1595390081.229,51.270,-54.199,-51.270,-15.625,0.000,0
1595390081.233,18.066,-53.711,-56.152,-14.648,0.000,0
1595390081.237,-70.801,-53.223,-54.199,-10.742,0.000,0
1595390081.241,-51.758,-47.363,-54.688,-14.648,0.000,0
1595390081.244,51.758,-44.922,-48.340,-9.766,0.000,0
1595390081.248,50.293,-53.223,-44.922,0.488,0.000,0
1595390081.252,-48.828,-53.711,-48.828,-1.465,0.000,0
1595390081.256,-71.289,-54.688,-59.570,-9.277,0.000,0
1595390081.260,14.160,-52.734,-63.965,-15.137,0.000,0
1595390081.264,52.246,-49.805,-56.641,-10.254,0.000,0
1595390081.268,-25.391,-55.664,-59.082,-7.812,0.000,0
1595390081.272,-67.383,-56.152,-57.617,-7.812,0.000,0
1595390081.276,-4.883,-54.199,-50.781,-6.348,0.000,0
1595390081.280,49.805,-51.270,-49.805,-8.789,0.000,0
1595390081.284,-4.883,-52.734,-55.176,-14.648,0.000,0
1595390081.287,-91.309,-56.641,-59.082,-20.996,0.000,0
1595390081.291,-53.223,-54.688,-57.129,-20.996,0.000,0
1595390081.295,33.691,-52.246,-53.711,-26.367,0.000,0
1595390081.299,14.648,-51.270,-53.223,-24.902,0.000,0
1595390081.303,-70.801,-53.223,-55.664,-17.090,0.000,0
1595390081.307,-69.824,-53.711,-57.129,-21.973,0.000,0
1595390081.311,24.902,-50.781,-50.293,-23.438,0.000,0
1595390081.315,37.598,-49.316,-47.363,-20.020,0.000,0
1595390081.319,-57.129,-50.781,-51.270,-21.484,0.000,0
1595390081.323,-77.637,-43.457,-52.246,-13.672,0.000,0
1595390081.326,10.742,-38.574,-44.434,-7.812,0.000,0
1595390081.330,40.527,-42.969,-39.551,-19.531,0.000,0
1595390081.334,-41.016,-46.875,-38.574,-23.438,0.000,0
1595390081.338,-103.516,-49.805,-38.574,-16.113,0.000,0
1595390081.342,-42.480,-55.664,-38.574,-17.090,0.000,0
1595390081.346,33.203,-65.918,-37.109,-20.020,0.000,0
1595390081.350,-18.555,-67.383,-30.273,-13.672,0.000,0
1595390081.354,-100.098,-65.430,-26.367,-13.184,0.000,0
1595390081.358,-62.012,-67.383,-30.762,-15.137,0.000,0
1595390081.362,32.715,-64.941,-35.156,-19.043,0.000,0
1595390081.366,21.484,-57.129,-35.645,-19.531,0.000,0
1595390081.369,-77.148,-52.246,-39.062,-16.602,0.000,0
1595390081.373,-81.055,-54.199,-43.457,-21.973,0.000,0
1595390081.377,10.742,-55.664,-37.598,-24.414,0.000,0
1595390081.381,28.809,-57.617,-36.621,-19.531,0.000,0
1595390081.385,-53.223,-64.453,-41.504,-12.207,0.000,0
1595390081.389,-83.984,-64.453,-41.016,-12.207,0.000,0
1595390081.393,-9.766,-61.035,-42.969,-11.719,0.000,0
1595390081.397,49.316,-57.129,-44.922,-10.254,0.000,0
1595390081.401,-10.254,-53.223,-41.992,-13.184,0.000,0
1595390081.405,-71.777,-49.316,-41.992,-8.301,0.000,0
1595390081.409,-8.789,-46.387,-40.039,-4.883,0.000,0
1595390081.412,62.500,-46.387,-37.109,-2.930,0.000,0
1595390081.416,22.461,-51.758,-39.062,1.465,0.000,0
1595390081.420,-61.523,-57.129,-41.992,-1.465,0.000,0
1595390081.424,-45.410,-54.688,-41.992,-6.836,0.000,0
1595390081.428,44.434,-51.758,-43.945,-12.695,0.000,0
1595390081.432,39.551,-49.316,-41.504,-7.812,0.000,0
1595390081.436,-50.781,-46.875,-40.527,0.977,0.000,0
1595390081.440,-73.242,-50.293,-42.969,0.000,0.000,0
1595390081.444,17.578,-50.293,-41.016,-11.719,0.000,0
1595390081.448,55.664,-51.270,-36.133,-12.207,0.000,0
1595390081.451,-26.855,-52.246,-38.086,-6.836,0.000,0
1595390081.455,-74.707,-56.641,-45.410,-15.625,0.000,0
1595390081.459,-3.418,-58.105,-44.434,-17.090,0.000,0
1595390081.463,54.199,-52.734,-45.898,-15.137,0.000,0
1595390081.467,-16.113,-54.199,-47.363,-15.137,0.000,0
1595390081.471,-84.473,-49.805,-42.969,-12.207,0.000,0
1595390081.475,-27.832,-47.852,-47.852,-22.949,0.000,0
1595390081.479,49.805,-48.828,-47.852,-25.391,0.000,0
1595390081.483,9.277,-48.828,-46.875,-12.207,0.000,0
1595390081.487,-82.031,-53.223,-48.828,-14.160,0.000,0
1595390081.491,-69.824,-57.617,-43.457,-20.508,0.000,0
1595390081.494,26.367,-52.734,-39.551,-17.578,0.000,0
1595390081.498,35.645,-48.340,-41.504,-16.113,0.000,0
1595390081.502,-52.734,-44.434,-42.969,-9.766,0.000,0
1595390081.506,-82.520,-38.574,-44.434,-16.602,0.000,0
1595390081.510,-1.465,-39.062,-44.434,-26.855,0.000,0
1595390081.514,46.875,-36.133,-39.062,-21.484,0.000,0
1595390081.518,-28.809,-41.504,-38.086,-12.207,0.000,0
1595390081.522,-87.402,-49.805,-38.574,-8.301,0.000,0
1595390081.526,-23.438,-48.828,-39.551,-12.207,0.000,0
1595390081.530,49.805,-47.363,-39.062,-9.766,0.000,0
1595390081.534,5.859,-47.363,-36.621,-7.324,0.000,0
1595390081.537,-81.055,-50.293,-43.945,-9.277,0.000,0
1595390081.541,-56.152,-51.270,-52.246,-13.672,0.000,0
1595390081.545,31.250,-49.805,-47.852,-16.602,0.000,0
1595390081.549,19.531,-41.992,-42.480,-10.742,0.000,0
1595390081.553,-65.430,-45.410,-44.434,-12.207,0.000,0
1595390081.557,-63.965,-54.688,-47.852,-14.160,0.000,0
1595390081.561,31.250,-53.223,-41.992,-1.953,0.000,0
1595390081.565,41.992,-48.828,-35.156,0.977,0.000,0
1595390081.569,-47.852,-46.875,-38.086,-2.930,0.000,0
1595390081.573,-74.707,-48.340,-44.434,-16.602,0.000,0
1595390081.576,2.441,-49.805,-47.852,-25.879,0.000,0
1595390081.580,50.781,-48.340,-44.922,-16.113,0.000,0
1595390081.584,-21.973,-46.387,-41.992,-7.324,0.000,0
1595390081.588,-86.426,-49.316,-44.922,-11.719,0.000,0
1595390081.592,-24.414,-50.781,-42.480,-15.137,0.000,0
1595390081.596,55.664,-45.410,-41.992,-5.371,0.000,0
1595390081.600,15.625,-39.551,-43.457,1.953,0.000,0
1595390081.604,-77.637,-44.922,-52.246,-4.395,0.000,0
1595390081.608,-54.199,-53.711,-58.105,-12.207,0.000,0
1595390081.612,52.734,-49.316,-48.828,-2.930,0.000,0
1595390081.616,38.086,-43.457,-45.410,4.395,0.000,0
1595390081.619,-57.129,-44.922,-44.434,2.441,0.000,0
1595390081.623,-61.523,-47.852,-48.340,-7.324,0.000,0
1595390081.627,16.602,-52.734,-48.340,-11.230,0.000,0
1595390081.631,41.504,-51.758,-51.758,-6.836,0.000,0
1595390081.635,-38.574,-47.852,-57.129,-7.812,0.000,0
1595390081.639,-77.148,-45.410,-57.129,-14.648,0.000,0
1595390081.643,-8.789,-48.828,-60.547,-20.020,0.000,0
1595390081.647,45.898,-49.805,-58.105,-19.043,0.000,0
1595390081.651,-14.648,-45.898,-51.758,-7.812,0.000,0
1595390081.655,-77.637,-43.945,-49.805,-5.859,0.000,0
1595390081.659,-26.855,-41.016,-43.457,-14.160,0.000,0
1595390081.662,51.270,-38.574,-41.992,-15.625,0.000,0
1595390081.666,6.348,-36.133,-48.828,-14.648,0.000,0
1595390081.670,-92.285,-39.062,-52.734,-16.113,0.000,0
1595390081.674,-64.941,-42.969,-51.270,-19.043,0.000,0
1595390081.678,34.180,-44.434,-49.316,-20.508,0.000,0
1595390081.682,32.227,-42.969,-49.316,-9.766,0.000,0
1595390081.686,-64.453,-41.992,-46.875,-8.789,0.000,0
1595390081.690,-80.566,-45.898,-44.922,-16.602,0.000,0
1595390081.694,20.020,-41.016,-42.969,-6.836,0.000,0
1595390081.698,57.617,-43.457,-36.621,2.930,0.000,0
1595390081.701,-45.898,-58.105,-34.180,-7.812,0.000,0
1595390081.705,-99.121,-61.523,-39.062,-13.184,0.000,0
1595390081.709,-11.719,-51.270,-40.527,-9.277,0.000,0
1595390081.713,47.852,-51.758,-35.645,-6.348,0.000,0
1595390081.717,-21.973,-57.129,-30.762,1.465,0.000,0
1595390081.721,-93.750,-54.688,-39.062,0.488,0.000,0
1595390081.725,-51.270,-53.223,-48.340,-8.301,0.000,0
1595390081.729,31.738,-47.363,-36.133,-5.859,0.000,0
1595390081.733,11.719,-45.410,-30.273,-2.441,0.000,0
1595390081.737,-83.496,-48.340,-39.551,-12.695,0.000,0
1595390081.741,-74.707,-53.223,-40.527,-21.973,0.000,0
1595390081.744,22.461,-56.641,-34.180,-22.461,0.000,0
1595390081.748,31.738,-49.805,-31.250,-9.766,0.000,0
1595390081.752,-65.430,-54.199,-36.621,-7.812,0.000,0
1595390081.756,-81.543,-62.012,-42.480,-16.602,0.000,0
1595390081.760,17.090,-54.688,-36.133,-14.648,0.000,0
1595390081.764,48.340,-50.293,-33.203,-13.672,0.000,0
1595390081.768,-39.062,-54.688,-41.504,-12.695,0.000,0
1595390081.772,-90.820,-51.758,-40.527,-15.625,0.000,0
1595390081.776,-19.043,-46.875,-33.691,-25.879,0.000,0
1595390081.780,42.480,-48.828,-33.203,-27.344,0.000,0
1595390081.784,-12.695,-48.340,-33.691,-19.531,0.000,0
1595390081.787,-89.844,-50.293,-37.598,-20.020,0.000,0
1595390081.791,-50.293,-53.223,-41.992,-26.367,0.000,0
1595390081.795,50.781,-51.270,-45.898,-25.879,0.000,0
1595390081.799,22.949,-54.688,-49.805,-21.973,0.000,0
1595390081.803,-83.008,-59.082,-53.711,-13.672,0.000,0
1595390081.807,-67.383,-54.688,-54.688,-16.602,0.000,0
1595390081.811,35.156,-52.734,-51.270,-26.367,0.000,0
1595390081.815,43.457,-51.270,-48.340,-17.090,0.000,0
1595390081.819,-62.988,-50.293,-44.922,-17.578,0.000,0
1595390081.823,-86.914,-52.246,-47.852,-26.367,0.000,0
1595390081.826,3.906,-49.805,-47.363,-22.949,0.000,0
1595390081.830,39.551,-51.270,-48.828,-26.367,0.000,0
1595390081.834,-35.156,-50.293,-53.223,-24.902,0.000,0
1595390081.838,-99.121,-47.852,-50.781,-25.879,0.000,0
1595390081.842,-35.156,-53.711,-50.293,-32.227,0.000,0
1595390081.846,41.992,-54.688,-50.293,-28.809,0.000,0
1595390081.850,-18.555,-54.199,-51.270,-31.738,0.000,0
1595390081.854,-96.680,-52.246,-48.340,-27.832,0.000,0
1595390081.858,-58.105,-53.223,-41.504,-18.555,0.000,0
1595390081.862,34.180,-55.176,-42.480,-22.949,0.000,0
1595390081.866,26.855,-53.223,-43.945,-20.020,0.000,0
1595390081.869,-80.566,-54.688,-45.898,-19.531,0.000,0
1595390081.873,-89.355,-54.199,-45.898,-22.949,0.000,0
1595390081.877,18.066,-48.828,-41.504,-16.602,0.000,0
1595390081.881,46.875,-50.781,-43.945,-14.648,0.000,0
1595390081.885,-43.945,-58.105,-48.340,-12.207,0.000,0
1595390081.889,-87.402,-57.617,-49.316,-19.043,0.000,0
1595390081.893,-3.906,-55.664,-47.852,-22.949,0.000,0
1595390081.897,47.852,-56.152,-48.340,-19.043,0.000,0
1595390081.901,-25.879,-54.688,-49.805,-17.090,0.000,0
1595390081.905,-87.402,-52.246,-48.340,-13.184,0.000,0
1595390081.909,-25.391,-48.828,-41.016,-22.461,0.000,0
1595390081.912,55.176,-42.969,-39.551,-23.438,0.000,0
1595390081.916,9.277,-46.387,-42.969,-14.648,0.000,0
1595390081.920,-80.078,-50.293,-46.387,-16.113,0.000,0
1595390081.924,-44.434,-45.898,-41.992,-17.090,0.000,0
1595390081.928,45.410,-41.504,-37.598,-13.672,0.000,0
1595390081.932,18.555,-44.434,-44.434,-7.324,0.000,0
1595390081.936,-68.848,-53.223,-45.898,-6.348,0.000,0
1595390081.940,-66.406,-50.781,-40.527,-12.207,0.000,0
1595390081.944,23.926,-46.875,-36.133,-11.230,0.000,0
1595390081.948,47.363,-51.758,-41.992,-2.930,0.000,0
1595390081.951,-45.410,-56.641,-49.805,-2.441,0.000,0
1595390081.955,-95.703,-57.617,-52.246,-15.137,0.000,0
1595390081.959,-15.137,-56.152,-47.363,-20.508,0.000,0
1595390081.963,47.363,-56.641,-45.898,-12.695,0.000,0
1595390081.967,-3.906,-57.129,-46.875,-15.137,0.000,0
1595390081.971,-80.566,-63.477,-47.363,-19.531,0.000,0
1595390081.975,-42.480,-63.965,-41.504,-17.090,0.000,0
1595390081.979,41.016,-60.547,-41.504,-18.555,0.000,0
1595390081.983,11.719,-62.012,-49.316,-14.160,0.000,0
1595390081.987,-78.125,-62.988,-48.340,-17.090,0.000,0
1595390081.991,-65.918,-62.988,-47.852,-26.367,0.000,0
1595390081.994,31.738,-58.105,-46.387,-22.949,0.000,0
1595390081.998,36.621,-56.641,-41.992,-11.230,0.000,0
1595390082.002,-61.523,-57.129,-42.480,-16.113,0.000,0
1595390082.006,-89.844,-58.594,-48.340,-31.250,0.000,0
1595390082.010,-3.906,-53.711,-45.898,-25.391,0.000,0
1595390082.014,35.156,-52.246,-39.062,-16.602,0.000,0
1595390082.018,-46.387,-57.617,-43.945,-20.020,0.000,0
1595390082.022,-99.121,-57.617,-46.875,-20.020,0.000,0
1595390082.026,-31.738,-54.688,-45.898,-20.996,0.000,0
1595390082.030,37.598,-56.641,-41.016,-20.996,0.000,0
1595390082.034,-9.766,-55.176,-40.527,-14.648,0.000,0
1595390082.037,-90.332,-52.734,-48.340,-18.555,0.000,0
1595390082.041,-55.664,-53.711,-48.828,-22.461,0.000,0
1595390082.045,33.691,-58.105,-48.340,-16.602,0.000,0
1595390082.049,18.066,-55.176,-45.410,-12.207,0.000,0
1595390082.053,-74.707,-52.246,-42.969,-10.254,0.000,0
1595390082.057,-74.707,-58.594,-45.410,-17.090,0.000,0
1595390082.061,23.438,-52.246,-46.387,-21.484,0.000,0
1595390082.065,34.180,-50.781,-45.898,-19.043,0.000,0
1595390082.069,-59.082,-54.199,-41.504,-14.160,0.000,0
1595390082.073,-81.055,-51.270,-38.086,-10.254,0.000,0
1595390082.076,13.184,-52.246,-39.062,-10.742,0.000,0
1595390082.080,59.570,-50.781,-37.598,-7.324,0.000,0
1595390082.084,-23.926,-54.199,-39.062,-2.441,0.000,0
1595390082.088,-84.961,-60.547,-44.434,-1.465,0.000,0
1595390082.092,-14.160,-55.176,-37.598,-10.742,0.000,0
1595390082.096,60.059,-50.293,-38.086,-13.672,0.000,0
1595390082.100,-1.465,-56.641,-42.969,-11.230,0.000,0
1595390082.104,-87.402,-55.176,-40.527,-17.090,0.000,0
1595390082.108,-45.410,-45.898,-38.086,-10.254,0.000,0
1595390082.112,52.734,-41.992,-34.180,-4.883,0.000,0
1595390082.116,43.457,-40.039,-32.715,-7.324,0.000,0
1595390082.119,-58.105,-45.410,-35.156,-6.836,0.000,0
1595390082.123,-70.312,-46.387,-36.621,-11.719,0.000,0
1595390082.127,29.297,-46.387,-38.086,-14.160,0.000,0
1595390082.131,41.504,-44.434,-37.109,-7.324,0.000,0
1595390082.135,-51.758,-42.969,-38.574,-1.953,0.000,0
1595390082.139,-79.102,-46.875,-45.410,-4.395,0.000,0
1595390082.143,5.859,-50.781,-42.969,0.000,0.000,0
1595390082.147,53.711,-52.246,-40.527,-7.324,0.000,0
1595390082.151,-27.344,-51.270,-43.457,-19.043,0.000,0
1595390082.155,-86.426,-51.758,-49.316,-14.648,0.000,0
1595390082.159,-30.273,-48.828,-49.805,-18.066,0.000,0
1595390082.162,42.969,-49.316,-47.852,-24.414,0.000,0
1595390082.166,12.207,-51.270,-48.340,-18.555,0.000,0
1595390082.170,-69.336,-52.734,-41.504,-12.207,0.000,0
1595390082.174,-44.434,-54.688,-32.227,-10.254,0.000,0
1595390082.178,49.316,-50.781,-32.227,-7.324,0.000,0
1595390082.182,37.109,-47.363,-32.227,-2.441,0.000,0
1595390082.186,-63.965,-53.223,-35.645,1.465,0.000,0
1595390082.190,-72.754,-48.828,-35.645,3.418,0.000,0
1595390082.194,25.879,-39.551,-29.785,-8.789,0.000,0
1595390082.198,48.828,-41.992,-35.156,-16.602,0.000,0
1595390082.201,-43.945,-45.410,-40.039,-17.090,0.000,0
1595390082.205,-88.867,-49.805,-40.527,-20.508,0.000,0
1595390082.209,-7.812,-46.387,-33.691,-15.137,0.000,0
1595390082.213,63.477,-44.434,-27.344,-9.766,0.000,0
1595390082.217,6.836,-45.410,-26.855,-5.371,0.000,0
1595390082.221,-77.637,-49.805,-33.691,-7.812,0.000,0
1595390082.225,-38.086,-55.176,-38.574,-13.672,0.000,0
1595390082.229,48.828,-50.781,-36.133,-13.672,0.000,0
1595390082.233,14.160,-51.270,-39.551,-11.719,0.000,0
1595390082.237,-78.613,-51.758,-43.457,-20.020,0.000,0
1595390082.241,-69.336,-56.641,-48.340,-30.273,0.000,0
1595390082.244,29.785,-58.105,-51.270,-23.926,0.000,0
1595390082.248,35.645,-54.688,-46.875,-17.578,0.000,0
1595390082.252,-63.477,-55.176,-47.852,-18.066,0.000,0
1595390082.256,-83.984,-57.617,-52.246,-20.996,0.000,0
1595390082.260,10.254,-57.129,-44.922,-16.602,0.000,0
1595390082.264,52.734,-56.641,-46.875,-8.789,0.000,0
1595390082.268,-34.668,-61.035,-50.781,-2.930,0.000,0
1595390082.272,-90.332,-58.105,-44.434,-6.348,0.000,0
1595390082.276,-20.020,-53.223,-41.504,-13.184,0.000,0
1595390082.280,46.387,-52.246,-42.480,-10.254,0.000,0
1595390082.284,-10.254,-48.828,-45.410,-6.836,0.000,0
1595390082.287,-81.055,-42.480,-46.387,-8.301,0.000,0
1595390082.291,-36.621,-42.480,-44.434,-2.441,0.000,0
1595390082.295,40.527,-50.781,-45.898,-3.418,0.000,0
1595390082.299,13.672,-54.688,-45.898,-9.277,0.000,0
1595390082.303,-71.289,-51.270,-41.504,-7.324,0.000,0
1595390082.307,-73.730,-49.805,-41.992,-9.766,0.000,0
1595390082.311,17.090,-53.711,-45.898,-19.043,0.000,0
1595390082.315,29.297,-58.105,-46.875,-22.949,0.000,0
1595390082.319,-72.754,-61.035,-51.758,-21.973,0.000,0
1595390082.323,-99.609,-64.941,-55.664,-22.949,0.000,0
1595390082.326,-14.160,-64.453,-55.176,-29.297,0.000,0
1595390082.330,33.203,-62.988,-59.570,-27.832,0.000,0
1595390082.334,-11.719,-59.082,-55.664,-1.953,0.000,0
1595390082.338,-74.707,-56.152,-39.551,-3.418,0.000,0
1595390082.342,-47.852,-58.105,-28.809,-37.598,0.000,0
1595390082.346,16.602,-59.570,-26.367,-41.016,0.000,0
1595390082.350,-32.715,-61.523,-35.156,-34.668,0.000,0
1595390082.354,-120.605,-66.406,-40.527,-43.945,0.000,0
1595390082.358,-87.891,-66.895,-36.133,-50.781,0.000,0
1595390082.362,7.324,-62.500,-38.086,-46.387,0.000,0
1595390082.366,-1.953,-56.152,-40.527,-35.156,0.000,0
1595390082.369,-89.355,-45.410,-37.109,-27.832,0.000,0
1595390082.373,-87.891,-49.805,-33.691,-23.438,0.000,0
1595390082.377,11.230,-54.688,-31.250,-19.043,0.000,0
1595390082.381,26.855,-51.758,-33.691,-17.578,0.000,0
1595390082.385,-65.430,-54.688,-33.691,-11.230,0.000,0
1595390082.389,-95.215,-51.758,-31.250,-14.648,0.000,0
1595390082.393,-4.395,-49.316,-31.738,-23.926,0.000,0
1595390082.397,52.734,-48.828,-34.180,-10.742,0.000,0
1595390082.401,-25.391,-52.246,-38.574,-10.742,0.000,0
1595390082.405,-93.750,-54.688,-41.992,-24.902,0.000,0
1595390082.409,-31.250,-54.199,-38.574,-21.484,0.000,0
1595390082.412,42.969,-57.129,-38.086,-20.020,0.000,0
1595390082.416,-1.953,-55.176,-39.062,-18.555,0.000,0
1595390082.420,-76.172,-48.340,-38.086,-11.719,0.000,0
1595390082.424,-43.457,-43.457,-41.016,-10.742,0.000,0
1595390082.428,44.922,-43.457,-44.922,-14.160,0.000,0
1595390082.432,45.410,-45.410,-41.992,-9.277,0.000,0
1595390082.436,-41.504,-43.457,-36.133,-7.812,0.000,0
1595390082.440,-68.848,-48.340,-43.945,-15.137,0.000,0
1595390082.444,12.695,-52.246,-46.387,-20.020,0.000,0
1595390082.448,45.898,-45.410,-39.062,-15.625,0.000,0
1595390082.451,-30.762,-49.316,-40.527,-5.859,0.000,0
1595390082.455,-76.660,-54.199,-44.434,-12.207,0.000,0
1595390082.459,-8.789,-47.852,-39.062,-18.066,0.000,0
1595390082.463,54.199,-47.852,-33.691,-9.766,0.000,0
1595390082.467,-9.277,-49.805,-33.203,-0.488,0.000,0
1595390082.471,-78.613,-44.434,-41.504,-2.930,0.000,0
1595390082.475,-30.762,-47.852,-44.922,-20.996,0.000,0
1595390082.479,53.223,-48.828,-40.527,-28.320,0.000,0
1595390082.483,21.973,-45.898,-39.551,-10.742,0.000,0
1595390082.487,-69.824,-49.805,-41.504,-7.812,0.000,0
1595390082.491,-54.199,-53.711,-38.574,-17.578,0.000,0
1595390082.494,38.574,-56.152,-36.621,-19.531,0.000,0
1595390082.498,42.480,-52.246,-41.992,-18.555,0.000,0
1595390082.502,-43.945,-53.711,-48.828,-17.090,0.000,0
1595390082.506,-60.059,-53.711,-46.387,-6.836,0.000,0
1595390082.510,14.648,-48.828,-37.598,-8.789,0.000,0
1595390082.514,41.992,-48.828,-35.156,-15.137,0.000,0
1595390082.518,-32.715,-49.805,-37.109,-9.766,0.000,0
1595390082.522,-77.637,-51.270,-38.086,-9.277,0.000,0
1595390082.526,-10.742,-51.758,-37.598,-13.672,0.000,0
1595390082.530,55.176,-53.223,-38.086,-6.836,0.000,0
1595390082.534,1.953,-58.105,-39.062,-0.977,0.000,0
1595390082.537,-70.801,-56.641,-39.551,-13.184,0.000,0
1595390082.541,-34.180,-53.223,-40.039,-24.902,0.000,0
1595390082.545,53.711,-50.293,-39.551,-20.996,0.000,0
1595390082.549,26.367,-45.898,-32.227,-17.090,0.000,0
1595390082.553,-67.871,-52.734,-33.691,-20.996,0.000,0
1595390082.557,-59.570,-58.594,-44.434,-29.297,0.000,0
1595390082.561,26.855,-53.711,-42.969,-32.227,0.000,0
1595390082.565,43.945,-46.387,-37.598,-26.367,0.000,0
1595390082.569,-54.688,-46.875,-39.062,-17.578,0.000,0
1595390082.573,-86.426,-47.852,-40.527,-10.742,0.000,0
1595390082.576,2.930,-45.898,-34.180,-13.184,0.000,0
1595390082.580,49.316,-42.969,-30.273,-11.230,0.000,0
1595390082.584,-24.902,-45.898,-35.645,-15.137,0.000,0
1595390082.588,-86.914,-49.805,-42.480,-19.531,0.000,0
1595390082.592,-33.203,-44.922,-36.621,-21.484,0.000,0
1595390082.596,44.434,-41.504,-30.273,-16.113,0.000,0
1595390082.600,6.348,-41.016,-38.086,-9.277,0.000,0
1595390082.604,-73.730,-37.109,-43.945,-7.324,0.000,0
1595390082.608,-39.062,-37.598,-49.316,-9.277,0.000,0
1595390082.612,58.105,-41.504,-50.781,-16.602,0.000,0
1595390082.616,38.086,-38.574,-48.340,-15.625,0.000,0
1595390082.619,-76.660,-37.598,-46.875,-13.184,0.000,0
1595390082.623,-81.543,-45.410,-47.852,-10.742,0.000,0
1595390082.627,25.391,-46.875,-42.480,-4.395,0.000,0
1595390082.631,53.711,-41.992,-41.016,-12.207,0.000,0
1595390082.635,-44.922,-46.387,-46.875,-14.160,0.000,0
1595390082.639,-88.379,-45.410,-45.410,-11.719,0.000,0
1595390082.643,0.488,-40.527,-37.109,-18.555,0.000,0
1595390082.647,49.805,-47.363,-40.527,-24.414,0.000,0
1595390082.651,-19.043,-53.711,-43.945,-15.625,0.000,0
1595390082.655,-82.031,-49.316,-43.457,-3.906,0.000,0
1595390082.659,-27.344,-40.039,-44.434,-9.766,0.000,0
1595390082.662,50.781,-35.645,-41.016,-15.625,0.000,0
1595390082.666,6.348,-39.062,-36.133,-8.301,0.000,0
1595390082.670,-77.637,-45.410,-32.715,-6.348,0.000,0
1595390082.674,-46.875,-47.363,-32.227,-20.020,0.000,0
1595390082.678,41.504,-43.945,-33.203,-17.090,0.000,0
1595390082.682,25.879,-45.410,-38.574,-6.836,0.000,0
1595390082.686,-65.918,-48.828,-42.480,-10.254,0.000,0
1595390082.690,-72.754,-43.945,-42.480,-3.418,0.000,0
1595390082.694,22.949,-42.480,-41.504,2.930,0.000,0
1595390082.698,52.734,-43.945,-37.109,3.418,0.000,0
1595390082.701,-35.156,-44.434,-31.738,3.418,0.000,0
1595390082.705,-77.637,-48.340,-35.156,-4.883,0.000,0
1595390082.709,-3.906,-51.270,-39.551,-10.742,0.000,0
1595390082.713,51.758,-50.293,-43.457,-5.859,0.000,0
1595390082.717,-4.395,-55.664,-48.340,-1.953,0.000,0
1595390082.721,-72.754,-61.035,-45.410,-6.836,0.000,0
1595390082.725,-28.320,-58.105,-38.086,-13.672,0.000,0
1595390082.729,45.898,-53.711,-36.621,-11.230,0.000,0
1595390082.733,3.418,-53.223,-35.156,-9.766,0.000,0
1595390082.737,-83.984,-51.758,-32.715,-15.137,0.000,0
1595390082.741,-57.129,-48.340,-37.109,-8.301,0.000,0
1595390082.744,40.039,-45.410,-37.598,-7.812,0.000,0
1595390082.748,39.062,-47.852,-39.062,-11.230,0.000,0
1595390082.752,-56.641,-54.199,-40.527,-3.906,0.000,0
1595390082.756,-86.914,-54.199,-41.992,-8.789,0.000,0
1595390082.760,6.348,-56.152,-44.922,-12.695,0.000,0
1595390082.764,56.152,-55.176,-36.621,-12.695,0.000,0
1595390082.768,-31.250,-53.711,-29.297,-19.531,0.000,0
1595390082.772,-85.938,-58.105,-31.250,-17.090,0.000,0
1595390082.776,-6.836,-56.152,-32.227,-17.578,0.000,0
1595390082.780,62.012,-50.781,-38.574,-22.949,0.000,0
1595390082.784,1.953,-52.734,-49.316,-13.184,0.000,0
1595390082.787,-79.590,-53.711,-46.387,-9.766,0.000,0
1595390082.791,-37.109,-45.410,-41.016,-6.836,0.000,0
1595390082.795,42.969,-50.781,-43.945,-3.418,0.000,0
1595390082.799,17.090,-55.176,-41.504,-9.766,0.000,0
1595390082.803,-71.289,-50.293,-39.551,1.465,0.000,0
1595390082.807,-57.617,-51.758,-43.457,-5.859,0.000,0
1595390082.811,36.621,-50.293,-42.969,-11.719,0.000,0
1595390082.815,42.480,-49.316,-42.969,-4.883,0.000,0
1595390082.819,-47.852,-47.852,-39.551,-5.859,0.000,0
1595390082.823,-78.125,-48.340,-41.504,-6.836,0.000,0
1595390082.826,19.043,-42.969,-41.992,-12.207,0.000,0
1595390082.830,67.871,-39.551,-41.016,-8.789,0.000,0
1595390082.834,-28.809,-51.270,-42.969,-5.859,0.000,0
1595390082.838,-97.168,-58.594,-43.945,-11.230,0.000,0
1595390082.842,-28.809,-52.246,-37.598,-10.254,0.000,0
1595390082.846,44.922,-48.828,-36.621,-13.672,0.000,0
1595390082.850,-11.719,-56.641,-43.457,-23.926,0.000,0
1595390082.854,-91.797,-58.594,-49.805,-24.414,0.000,0
1595390082.858,-52.246,-54.199,-47.363,-23.438,0.000,0
1595390082.862,34.668,-54.688,-41.016,-23.438,0.000,0
1595390082.866,14.160,-51.758,-40.527,-23.438,0.000,0
1595390082.869,-70.801,-45.898,-34.668,-12.695,0.000,0
1595390082.873,-64.453,-50.781,-33.203,-12.207,0.000,0
1595390082.877,29.297,-52.734,-31.738,-9.277,0.000,0
1595390082.881,45.898,-52.246,-35.645,-4.883,0.000,0
1595390082.885,-47.852,-54.688,-39.062,-10.742,0.000,0
1595390082.889,-74.219,-54.199,-35.645,-6.836,0.000,0
1595390082.893,11.719,-50.293,-33.203,-0.977,0.000,0
1595390082.897,53.711,-48.828,-34.180,-1.953,0.000,0
1595390082.901,-14.648,-51.758,-35.645,-4.395,0.000,0
1595390082.905,-76.660,-50.781,-35.156,-2.441,0.000,0
1595390082.909,-25.391,-47.363,-38.086,-11.719,0.000,0
1595390082.912,45.898,-45.898,-42.480,-18.555,0.000,0
1595390082.916,-3.418,-46.875,-43.457,-11.719,0.000,0
1595390082.920,-76.660,-50.293,-45.410,-11.719,0.000,0
1595390082.924,-41.992,-46.387,-44.922,-17.090,0.000,0
1595390082.928,44.922,-40.527,-46.387,-16.113,0.000,0
1595390082.932,37.109,-45.410,-49.316,-15.625,0.000,0
1595390082.936,-60.059,-50.293,-48.340,-13.184,0.000,0
1595390082.940,-75.195,-45.410,-44.434,-14.648,0.000,0
1595390082.944,20.020,-38.574,-38.574,-21.973,0.000,0
1595390082.948,41.992,-41.504,-39.062,-19.531,0.000,0
1595390082.951,-37.598,-45.898,-46.387,-13.672,0.000,0
1595390082.955,-82.520,-43.945,-50.293,-11.230,0.000,0
1595390082.959,-12.695,-42.480,-48.828,-17.090,0.000,0
1595390082.963,53.223,-45.898,-46.387,-27.832,0.000,0
1595390082.967,-12.695,-48.828,-48.340,-25.391,0.000,0
1595390082.971,-88.867,-51.758,-49.805,-22.461,0.000,0
1595390082.975,-35.645,-52.734,-42.969,-21.484,0.000,0
1595390082.979,49.805,-47.852,-40.527,-14.648,0.000,0
1595390082.983,7.324,-51.270,-43.457,-10.742,0.000,0
1595390082.987,-79.590,-57.129,-43.945,-18.066,0.000,0
1595390082.991,-49.316,-51.270,-41.992,-22.461,0.000,0
1595390082.994,38.086,-44.434,-41.016,-16.602,0.000,0
1595390082.998,32.715,-50.781,-39.062,-9.766,0.000,0
1595390083.002,-55.176,-51.758,-37.109,-2.441,0.000,0
1595390083.006,-81.543,-47.363,-41.992,-5.371,0.000,0
1595390083.010,9.277,-48.340,-41.016,-15.625,0.000,0
1595390083.014,52.734,-45.898,-39.062,-7.812,0.000,0
1595390083.018,-37.598,-49.316,-45.410,-6.836,0.000,0
1595390083.022,-90.820,-54.688,-44.434,-9.277,0.000,0
1595390083.026,-15.137,-51.758,-39.062,-10.254,0.000,0
1595390083.030,54.688,-50.781,-38.574,-10.742,0.000,0
1595390083.034,2.441,-49.805,-39.551,-8.301,0.000,0
1595390083.037,-72.754,-45.898,-42.480,-13.672,0.000,0
1595390083.041,-33.203,-50.293,-41.992,-12.207,0.000,0
1595390083.045,45.898,-52.246,-42.969,-11.230,0.000,0
1595390083.049,13.672,-53.223,-46.875,-18.066,0.000,0
1595390083.053,-81.055,-61.035,-51.758,-21.973,0.000,0
1595390083.057,-61.035,-59.082,-53.223,-21.484,0.000,0
1595390083.061,32.715,-56.641,-53.711,-20.508,0.000,0
1595390083.065,31.738,-59.570,-56.152,-20.020,0.000,0
1595390083.069,-61.523,-58.594,-50.781,-15.625,0.000,0
1595390083.073,-85.449,-59.570,-49.805,-18.555,0.000,0
1595390083.076,4.395,-55.664,-49.316,-20.996,0.000,0
1595390083.080,50.293,-50.293,-45.410,-15.625,0.000,0
1595390083.084,-29.297,-56.641,-48.828,-19.043,0.000,0
1595390083.088,-103.516,-59.570,-57.617,-28.320,0.000,0
1595390083.092,-41.992,-55.176,-62.012,-27.832,0.000,0
1595390083.096,37.109,-49.316,-55.664,-26.367,0.000,0
1595390083.100,-11.719,-51.758,-55.176,-14.160,0.000,0
1595390083.104,-84.961,-60.547,-60.059,-7.812,0.000,0
1595390083.108,-47.852,-57.617,-56.152,-22.461,0.000,0
1595390083.112,48.340,-52.734,-51.270,-17.578,0.000,2
1595390083.116,29.785,-51.758,-48.828,-12.207,0.000,0
1595390083.119,-79.590,-56.152,-52.734,-21.484,0.000,0
1595390083.123,-81.543,-57.129,-53.711,-25.879,0.000,0
1595390083.127,21.973,-50.293,-51.758,-26.855,0.000,0
1595390083.131,45.898,-52.246,-54.199,-15.625,0.000,0
1595390083.135,-41.504,-57.129,-54.199,-10.254,0.000,0
1595390083.139,-74.219,-57.617,-56.641,-19.043,0.000,0
1595390083.143,17.090,-51.270,-50.781,-13.184,0.000,0
1595390083.147,68.359,-49.805,-46.387,-8.789,0.000,0
1595390083.151,-4.395,-56.152,-48.828,-10.742,0.000,0
1595390083.155,-64.941,-52.734,-46.875,-16.113,0.000,0
1595390083.159,-14.160,-51.270,-41.016,-19.531,0.000,0
1595390083.162,56.152,-51.758,-38.574,-11.230,0.000,0
1595390083.166,9.277,-53.223,-40.527,-2.930,0.000,0
1595390083.170,-71.777,-55.176,-36.133,-2.930,0.000,0
1595390083.174,-44.434,-52.734,-34.180,-11.719,0.000,0
1595390083.178,38.574,-52.246,-40.527,-7.324,0.000,0
1595390083.182,26.367,-55.664,-39.551,-4.883,0.000,0
1595390083.186,-67.383,-52.734,-41.504,-14.648,0.000,0
1595390083.190,-68.848,-50.293,-40.527,-6.836,0.000,0
1595390083.194,30.762,-49.316,-33.203,-1.953,0.000,0
1595390083.198,54.688,-45.410,-30.273,-0.488,0.000,0
1595390083.201,-39.062,-49.316,-31.738,5.859,0.000,0
1595390083.205,-77.148,-54.199,-37.598,6.836,0.000,0
1595390083.209,6.348,-53.711,-34.180,2.930,0.000,0
1595390083.213,53.711,-52.734,-37.109,-2.930,0.000,0
1595390083.217,-16.602,-50.293,-41.504,-4.883,0.000,0
1595390083.221,-84.961,-49.316,-41.016,-9.766,0.000,0
1595390083.225,-33.691,-47.363,-43.945,-19.043,0.000,0
1595390083.229,52.734,-45.898,-39.062,-19.531,0.000,0
1595390083.233,14.160,-46.387,-35.645,-2.441,0.000,0
1595390083.237,-79.590,-51.270,-38.086,4.883,0.000,0
1595390083.241,-59.570,-57.129,-37.109,-4.395,0.000,0
1595390083.244,34.668,-59.082,-38.574,-6.348,0.000,0
1595390083.248,35.156,-58.594,-41.992,-11.719,0.000,0
1595390083.252,-61.523,-59.082,-39.062,-10.742,0.000,0
1595390083.256,-81.055,-62.988,-39.062,-13.672,0.000,0
1595390083.260,7.324,-60.547,-40.527,-27.832,0.000,0
1595390083.264,41.504,-48.828,-38.086,-22.949,0.000,0
1595390083.268,-41.504,-55.176,-43.457,-17.578,0.000,0
1595390083.272,-93.262,-60.059,-43.945,-19.531,0.000,0
1595390083.276,-14.160,-52.734,-39.062,-21.973,0.000,0
1595390083.280,57.617,-52.734,-45.410,-23.926,0.000,0
1595390083.284,-7.324,-52.734,-47.363,-20.508,0.000,0
1595390083.287,-89.355,-56.641,-42.480,-11.230,0.000,0
1595390083.291,-46.875,-55.176,-42.969,-19.043,0.000,0
1595390083.295,41.504,-49.805,-41.504,-12.695,0.000,0
1595390083.299,20.508,-50.293,-40.527,-4.395,0.000,0
1595390083.303,-73.730,-53.711,-43.457,-20.508,0.000,0
1595390083.307,-65.918,-54.199,-46.387,-28.320,0.000,0
1595390083.311,27.832,-52.246,-43.945,-25.879,0.000,0
1595390083.315,31.250,-46.875,-37.109,-17.578,0.000,0
1595390083.319,-57.617,-49.316,-32.715,-14.160,0.000,0
1595390083.323,-82.520,-54.199,-32.715,-21.484,0.000,0
1595390083.326,0.488,-56.152,-34.180,-20.508,0.000,0
1595390083.330,44.922,-60.547,-37.598,-15.625,0.000,0
1595390083.334,-23.438,-65.918,-45.410,-18.555,0.000,0
1595390083.338,-77.148,-63.477,-50.293,-18.555,0.000,0
1595390083.342,-24.902,-63.477,-46.875,-20.020,0.000,0
1595390083.346,43.945,-62.500,-45.410,-22.949,0.000,0
1595390083.350,-7.812,-60.059,-48.340,-27.832,0.000,0
1595390083.354,-91.309,-64.941,-47.852,-26.855,0.000,0
1595390083.358,-44.434,-62.988,-47.852,-10.254,0.000,0
1595390083.362,50.781,-60.547,-42.969,-4.395,0.000,0
1595390083.366,25.879,-54.199,-41.504,-15.625,0.000,0
1595390083.369,-71.289,-40.039,-52.734,-26.367,0.000,0
1595390083.373,-70.801,-34.180,-53.223,-29.785,0.000,0
1595390083.377,28.809,-38.086,-45.410,-21.484,0.000,0
1595390083.381,43.457,-46.387,-47.363,-20.508,0.000,0
1595390083.385,-47.852,-55.664,-50.781,-23.926,0.000,0
1595390083.389,-76.172,-55.664,-50.293,-21.484,0.000,0
1595390083.393,14.648,-52.246,-40.527,-16.602,0.000,0
1595390083.397,60.059,-46.875,-35.156,-15.625,0.000,0
1595390083.401,-19.531,-43.945,-42.969,-20.020,0.000,0
1595390083.405,-83.984,-49.805,-48.828,-16.113,0.000,0
1595390083.409,-23.438,-50.293,-43.457,-20.020,0.000,0
1595390083.412,55.664,-44.434,-41.504,-25.391,0.000,0
1595390083.416,10.742,-46.875,-42.969,-14.160,0.000,0
1595390083.420,-76.660,-48.340,-43.457,-5.371,0.000,0
1595390083.424,-48.828,-46.387,-39.062,-5.859,0.000,0
1595390083.428,38.086,-49.805,-34.180,-15.137,0.000,0
1595390083.432,27.832,-49.805,-31.738,-12.207,0.000,0
1595390083.436,-59.570,-45.410,-27.344,-0.977,0.000,0
1595390083.440,-63.477,-47.852,-28.809,-9.766,0.000,0
1595390083.444,32.227,-52.246,-34.180,-21.484,0.000,0
1595390083.448,54.199,-51.270,-39.551,-17.578,0.000,0
1595390083.451,-46.875,-51.270,-43.457,-13.672,0.000,0
1595390083.455,-91.309,-52.246,-42.969,-14.160,0.000,0
1595390083.459,-11.719,-55.664,-44.922,-23.438,0.000,0
1595390083.463,47.852,-50.781,-42.969,-22.949,0.000,0
1595390083.467,-16.602,-42.969,-36.621,-16.602,0.000,0
1595390083.471,-83.008,-45.410,-33.203,-13.184,0.000,0
1595390083.475,-28.809,-47.363,-33.691,-13.672,0.000,0
1595390083.479,49.316,-48.828,-38.574,-14.648,0.000,0
1595390083.483,9.277,-54.688,-37.598,-9.766,0.000,0
1595390083.487,-84.961,-53.711,-36.621,-9.766,0.000,0
1595390083.491,-63.477,-55.176,-39.062,-17.578,0.000,0
1595390083.494,40.039,-59.082,-38.574,-18.555,0.000,0
1595390083.498,41.504,-54.688,-40.039,-10.742,0.000,0
1595390083.502,-60.547,-51.758,-40.039,-5.371,0.000,0
1595390083.506,-80.078,-51.270,-42.480,-6.348,0.000,0
1595390083.510,13.672,-50.293,-41.016,-9.766,0.000,0
1595390083.514,53.223,-51.270,-33.203,-10.254,0.000,0
1595390083.518,-29.785,-44.922,-35.645,-8.301,0.000,0
1595390083.522,-79.102,-47.852,-44.922,-7.324,0.000,0
1595390083.526,-10.742,-50.781,-43.457,-13.184,0.000,0
1595390083.530,53.223,-47.852,-41.016,-15.625,0.000,0
1595390083.534,-0.977,-53.711,-51.270,-11.230,0.000,0
1595390083.537,-83.008,-51.758,-52.734,-16.602,0.000,0
1595390083.541,-37.598,-45.410,-47.363,-21.484,0.000,0
1595390083.545,56.152,-46.875,-45.410,-15.137,0.000,0
1595390083.549,20.020,-48.828,-42.969,-8.789,0.000,0
1595390083.553,-80.078,-46.875,-39.062,-3.906,0.000,0
1595390083.557,-66.895,-43.945,-40.527,-7.324,0.000,0
1595390083.561,33.203,-42.480,-36.621,-5.859,0.000,0
1595390083.565,41.504,-45.898,-35.156,-3.418,0.000,0
1595390083.569,-49.805,-48.340,-37.109,-6.836,0.000,0
1595390083.573,-76.172,-47.852,-36.133,-10.742,0.000,0
1595390083.576,12.695,-48.828,-33.691,-13.672,0.000,0
1595390083.580,53.711,-52.734,-33.203,-11.719,0.000,0
1595390083.584,-27.344,-56.152,-27.832,-6.348,0.000,0
1595390083.588,-90.332,-56.641,-28.320,-12.207,0.000,0
1595390083.592,-30.273,-56.641,-32.715,-27.832,0.000,0
1595390083.596,51.758,-57.617,-35.156,-27.832,0.000,0
1595390083.600,2.441,-61.035,-34.180,-16.113,0.000,0
1595390083.604,-93.750,-61.035,-31.250,-14.648,0.000,0
1595390083.608,-59.570,-57.129,-33.691,-13.672,0.000,0
1595390083.612,36.621,-55.664,-35.645,-7.812,0.000,0
1595390083.616,25.391,-51.758,-31.738,-10.254,0.000,0
1595390083.619,-68.848,-52.734,-37.109,-12.695,0.000,0
1595390083.623,-69.824,-59.570,-39.551,-10.742,0.000,0
1595390083.627,29.785,-58.105,-35.156,-11.230,0.000,0
1595390083.631,41.504,-59.082,-36.133,-16.602,0.000,0
1595390083.635,-50.781,-62.988,-32.715,-10.742,0.000,0
1595390083.639,-82.031,-58.594,-28.320,-1.465,0.000,0
1595390083.643,4.395,-50.781,-27.344,-1.953,0.000,0
1595390083.647,61.035,-51.270,-31.738,-1.465,0.000,0
1595390083.651,-17.090,-53.711,-33.203,-2.930,0.000,0
1595390083.655,-83.496,-47.852,-27.344,-1.465,0.000,0
1595390083.659,-20.020,-47.363,-23.926,0.000,0.000,0
1595390083.662,61.035,-47.852,-21.484,-0.977,0.000,0
1595390083.666,15.137,-51.270,-20.020,-1.465,0.000,0
1595390083.670,-73.242,-54.199,-25.391,-1.953,0.000,0
1595390083.674,-40.527,-50.781,-32.227,-4.395,0.000,0
1595390083.678,49.805,-49.316,-37.109,-7.324,0.000,0
1595390083.682,40.039,-50.781,-41.992,-5.371,0.000,0
1595390083.686,-50.781,-48.828,-42.969,4.395,0.000,0
1595390083.690,-54.688,-50.781,-39.551,4.883,0.000,0
1595390083.694,34.668,-52.246,-33.691,-2.441,0.000,0
1595390083.698,54.199,-52.246,-31.250,1.465,0.000,0
1595390083.701,-25.391,-55.664,-28.320,15.625,0.000,0
1595390083.705,-63.477,-51.758,-29.785,15.137,0.000,0
1595390083.709,10.254,-51.270,-32.715,0.977,0.000,0
1595390083.713,61.523,-49.316,-34.668,1.465,0.000,0
1595390083.717,-8.301,-44.434,-33.691,3.906,0.000,0
1595390083.721,-76.660,-48.340,-35.645,-0.977,0.000,0
1595390083.725,-25.391,-48.828,-36.621,4.395,0.000,0
1595390083.729,57.617,-51.758,-34.180,7.324,0.000,0
1595390083.733,11.719,-59.570,-34.180,-2.441,0.000,0
1595390083.737,-83.984,-57.617,-34.180,-4.883,0.000,0
1595390083.741,-61.523,-56.152,-33.203,-8.301,0.000,0
1595390083.744,25.879,-58.105,-32.715,-9.766,0.000,0
1595390083.748,19.531,-56.152,-32.715,0.488,0.000,0
1595390083.752,-65.918,-56.641,-29.297,-1.953,0.000,0
1595390083.756,-75.195,-57.129,-31.250,-3.906,0.000,0
1595390083.760,18.066,-50.293,-26.855,-3.418,0.000,0
1595390083.764,55.664,-49.805,-24.902,0.488,0.000,0
1595390083.768,-29.297,-61.035,-27.344,0.000,0.000,0
1595390083.772,-90.820,-64.453,-30.273,-9.277,0.000,0
1595390083.776,-20.508,-60.059,-37.598,-12.695,0.000,0
1595390083.780,44.434,-59.082,-43.457,-14.648,0.000,0
1595390083.784,-17.090,-56.152,-40.039,-18.066,0.000,0
1595390083.787,-86.426,-55.664,-43.945,-15.625,0.000,0
1595390083.791,-36.133,-62.012,-51.758,-20.508,0.000,0
1595390083.795,50.781,-59.082,-45.898,-24.902,0.000,0
1595390083.799,22.461,-53.223,-41.992,-21.973,0.000,0
1595390083.803,-70.801,-55.176,-40.527,-23.438,0.000,0
1595390083.807,-66.895,-59.082,-41.016,-25.879,0.000,0
1595390083.811,22.461,-59.082,-40.039,-30.273,0.000,0
1595390083.815,33.203,-54.688,-32.227,-20.996,0.000,0
1595390083.819,-48.828,-50.781,-28.320,-4.395,0.000,0
1595390083.823,-64.941,-56.152,-28.320,-6.348,0.000,0
1595390083.826,10.742,-61.035,-26.367,-14.648,0.000,0
1595390083.830,57.129,-57.617,-25.879,-6.836,0.000,0
1595390083.834,-11.719,-51.758,-25.879,-7.324,0.000,0
1595390083.838,-81.055,-55.176,-33.203,-14.648,0.000,0
1595390083.842,-20.020,-55.664,-37.109,-8.789,0.000,0
1595390083.846,55.664,-47.363,-34.668,-9.277,0.000,0
1595390083.850,3.418,-43.457,-34.668,-7.324,0.000,0
1595390083.854,-74.219,-47.363,-29.297,-6.348,0.000,0
1595390083.858,-32.227,-51.758,-22.461,-10.254,0.000,0
1595390083.862,52.734,-53.223,-23.926,-5.859,0.000,0
1595390083.866,34.180,-53.711,-20.508,5.371,0.000,0
1595390083.869,-55.176,-53.223,-18.066,5.371,0.000,0
1595390083.873,-59.570,-51.758,-30.762,-10.742,0.000,0
1595390083.877,32.227,-47.363,-38.086,-15.137,0.000,0
1595390083.881,42.969,-42.969,-32.227,-3.418,0.000,0
1595390083.885,-55.176,-41.992,-24.902,-0.488,0.000,0
1595390083.889,-84.961,-47.363,-21.973,-5.859,0.000,0
1595390083.893,-0.488,-53.223,-20.996,-15.625,0.000,0
1595390083.897,40.527,-53.711,-22.461,-8.301,0.000,0
1595390083.901,-39.062,-56.152,-29.297,-2.930,0.000,0
1595390083.905,-98.145,-53.711,-30.273,-11.230,0.000,0
1595390083.909,-30.273,-46.875,-25.879,-18.555,0.000,0
1595390083.912,39.062,-44.434,-25.391,-16.113,0.000,0
1595390083.916,3.418,-42.969,-27.344,-2.441,0.000,0
1595390083.920,-68.848,-42.969,-21.484,0.977,0.000,0
1595390083.924,-52.734,-47.852,-19.043,-8.301,0.000,0
1595390083.928,37.598,-50.781,-31.250,-12.695,0.000,0
1595390083.932,22.461,-50.293,-30.273,-3.418,0.000,0
1595390083.936,-68.848,-51.758,-27.344,0.977,0.000,0
1595390083.940,-73.730,-47.852,-33.203,-10.254,0.000,0
1595390083.944,12.207,-45.898,-28.809,-16.602,0.000,0
1595390083.948,39.551,-48.828,-23.438,-7.812,0.000,0
1595390083.951,-34.668,-47.852,-21.973,-3.906,0.000,0
1595390083.955,-77.148,-52.246,-18.555,-8.789,0.000,0
1595390083.959,-10.742,-57.617,-18.555,-14.648,0.000,0
1595390083.963,50.781,-52.246,-21.973,-11.230,0.000,0
1595390083.967,-2.930,-50.781,-21.484,-7.324,0.000,0
1595390083.971,-71.777,-55.176,-24.902,-5.859,0.000,0
1595390083.975,-26.855,-52.734,-24.902,-7.812,0.000,0
1595390083.979,57.617,-49.316,-20.508,-15.625,0.000,0
1595390083.983,30.762,-52.734,-23.438,-9.766,0.000,0
1595390083.987,-64.941,-54.199,-25.391,2.930,0.000,0
1595390083.991,-50.293,-51.758,-24.414,0.000,0.000,0
1595390083.994,47.363,-48.340,-31.250,-14.160,0.000,0
1595390083.998,36.133,-49.805,-36.133,-10.254,0.000,0
1595390084.002,-64.453,-50.781,-35.645,-11.719,0.000,0
1595390084.006,-66.406,-53.223,-39.551,-20.996,0.000,0
1595390084.010,35.156,-54.688,-35.156,-12.207,0.000,0
1595390084.014,57.129,-49.805,-32.227,-6.836,0.000,0
1595390084.018,-33.691,-48.340,-30.273,2.930,0.000,0
1595390084.022,-90.820,-47.852,-30.273,2.441,0.000,0
1595390084.026,-19.531,-55.176,-32.227,-8.301,0.000,0
1595390084.030,47.363,-61.035,-32.715,-0.977,0.000,0
1595390084.034,-6.836,-55.176,-32.227,-4.395,0.000,0
1595390084.037,-74.707,-52.246,-36.621,-13.672,0.000,0
1595390084.041,-37.109,-54.199,-35.645,-16.602,0.000,0
1595390084.045,39.062,-58.105,-38.086,-22.949,0.000,0
1595390084.049,14.160,-53.223,-36.621,-20.508,0.000,0
1595390084.053,-70.312,-51.758,-32.715,-11.230,0.000,0
1595390084.057,-64.453,-57.617,-35.156,-13.672,0.000,0
1595390084.061,30.273,-56.641,-31.250,-11.719,0.000,0
1595390084.065,48.828,-56.152,-32.715,-3.418,0.000,0
1595390084.069,-38.086,-53.711,-37.598,-4.883,0.000,0
1595390084.073,-77.637,-53.711,-43.457,-16.113,0.000,0
1595390084.076,-1.465,-52.246,-43.945,-13.672,0.000,0
1595390084.080,51.758,-46.387,-38.574,-13.672,0.000,0
1595390084.084,-17.578,-47.363,-37.109,-15.137,0.000,0
1595390084.088,-78.125,-58.594,-39.062,-17.090,0.000,0
1595390084.092,-18.555,-60.059,-41.504,-19.043,0.000,0
1595390084.096,49.805,-49.805,-38.574,-10.742,0.000,0
1595390084.100,0.977,-53.711,-33.691,-3.418,0.000,0
1595390084.104,-74.707,-60.059,-41.016,-7.812,0.000,0
1595390084.108,-35.645,-57.129,-48.828,-6.348,0.000,0
1595390084.112,38.086,-55.176,-41.992,-6.836,0.000,0
1595390084.116,17.578,-47.852,-37.598,-12.695,0.000,0
1595390084.119,-71.777,-51.758,-38.574,-8.789,0.000,0
1595390084.123,-75.684,-61.035,-37.109,-10.742,0.000,0
1595390084.127,27.344,-56.152,-34.668,-4.883,0.000,0
1595390084.131,45.410,-55.664,-33.203,-0.977,0.000,0
1595390084.135,-47.852,-55.176,-34.668,-5.371,0.000,0
1595390084.139,-78.125,-53.223,-40.039,-7.324,0.000,0
1595390084.143,2.441,-47.852,-41.992,-14.160,0.000,0
1595390084.147,49.316,-41.016,-40.527,-11.230,0.000,0
1595390084.151,-35.645,-46.875,-44.922,-7.812,0.000,0
1595390084.155,-112.305,-50.781,-54.199,-22.461,0.000,0
1595390084.159,-52.734,-46.875,-50.781,-37.109,0.000,0
1595390084.162,29.297,-45.898,-44.434,-31.250,0.000,0
1595390084.166,-13.184,-47.852,-43.457,-19.531,0.000,0
1595390084.170,-92.773,-44.922,-38.086,-14.648,0.000,0
1595390084.174,-62.500,-45.898,-41.992,-25.879,0.000,0
1595390084.178,26.367,-47.363,-45.410,-33.691,0.000,0
1595390084.182,20.996,-46.875,-45.898,-29.297,0.000,0
1595390084.186,-73.730,-49.316,-49.316,-33.203,0.000,0
1595390084.190,-85.449,-47.363,-41.992,-31.250,0.000,0
1595390084.194,9.766,-49.805,-40.527,-29.785,0.000,0
1595390084.198,36.133,-49.805,-45.898,-30.762,0.000,0
1595390084.201,-50.293,-51.270,-45.410,-28.809,0.000,0
1595390084.205,-94.727,-53.711,-41.504,-29.785,0.000,0
1595390084.209,-11.719,-55.664,-38.086,-25.879,0.000,0
1595390084.213,41.504,-56.641,-39.062,-18.066,0.000,0
1595390084.217,-22.949,-52.734,-40.527,-13.184,0.000,0
1595390084.221,-81.543,-55.664,-43.945,-16.602,0.000,0
1595390084.225,-29.297,-54.688,-41.504,-15.137,0.000,0
1595390084.229,46.875,-50.293,-40.527,-14.160,0.000,0
1595390084.233,11.719,-47.852,-38.574,-9.277,0.000,0
1595390084.237,-75.195,-47.363,-36.133,-9.277,0.000,0
1595390084.241,-57.617,-52.734,-38.086,-11.719,0.000,0
1595390084.244,35.645,-55.176,-37.109,-10.742,0.000,0
1595390084.248,38.086,-48.828,-35.645,-10.254,0.000,0
1595390084.252,-55.176,-45.410,-39.062,-11.719,0.000,0
1595390084.256,-78.613,-50.293,-36.133,-16.113,0.000,0
1595390084.260,11.230,-51.270,-28.809,-11.719,0.000,0
1595390084.264,46.387,-47.363,-37.109,-15.137,0.000,0
1595390084.268,-42.480,-54.688,-39.551,-18.555,0.000,0
1595390084.272,-92.285,-60.547,-34.180,-13.184,0.000,0
1595390084.276,-16.113,-58.594,-33.203,-11.719,0.000,0
1595390084.280,49.316,-57.617,-33.203,-9.277,0.000,0
1595390084.284,-5.859,-53.711,-33.691,-4.883,0.000,0
1595390084.287,-77.637,-52.734,-36.621,-9.766,0.000,0
1595390084.291,-28.809,-52.734,-41.016,-17.578,0.000,0
1595390084.295,45.410,-55.664,-37.598,-20.020,0.000,0
1595390084.299,11.230,-57.129,-32.715,-14.160,0.000,0
1595390084.303,-81.055,-55.664,-35.156,-13.672,0.000,0
1595390084.307,-74.219,-55.176,-40.039,-23.438,0.000,0
1595390084.311,20.020,-54.199,-39.551,-22.949,0.000,0
1595390084.315,25.879,-55.664,-35.156,-16.113,0.000,0
1595390084.319,-62.988,-55.176,-36.621,-15.137,0.000,0
1595390084.323,-79.102,-50.293,-35.156,-16.602,0.000,0
1595390084.326,7.324,-50.293,-34.668,-23.926,0.000,0
1595390084.330,42.969,-55.664,-42.480,-20.996,0.000,0
1595390084.334,-29.297,-53.711,-41.504,-11.230,0.000,0
1595390084.338,-83.008,-56.641,-41.504,-19.043,0.000,0
1595390084.342,-23.438,-59.082,-45.898,-27.344,0.000,0
1595390084.346,39.551,-55.664,-47.363,-28.320,0.000,0
1595390084.350,-8.301,-54.199,-46.387,-23.438,0.000,0
1595390084.354,-89.844,-52.734,-47.852,-21.484,0.000,0
1595390084.358,-60.059,-49.316,-46.387,-22.461,0.000,0
1595390084.362,31.250,-49.805,-38.086,-12.695,0.000,0
1595390084.366,15.625,-49.316,-27.344,-4.883,0.000,0
1595390084.369,-72.266,-49.805,-26.855,-7.324,0.000,0
1595390084.373,-64.453,-55.176,-33.691,-14.160,0.000,0
1595390084.377,31.738,-56.641,-30.762,-13.184,0.000,0
1595390084.381,50.293,-52.246,-36.133,-8.301,0.000,0
1595390084.385,-39.062,-53.711,-41.504,-3.906,0.000,0
1595390084.389,-71.777,-50.293,-39.551,-0.488,0.000,0
1595390084.393,18.066,-44.922,-35.645,1.465,0.000,0
1595390084.397,72.754,-42.480,-34.180,0.977,0.000,0
1595390084.401,-0.977,-41.504,-37.598,4.883,0.000,0
1595390084.405,-74.707,-46.875,-42.969,3.906,0.000,0
1595390084.409,-21.484,-46.387,-43.457,-0.488,0.000,0
1595390084.412,52.246,-47.852,-39.062,1.465,0.000,0
1595390084.416,7.812,-47.852,-37.109,6.348,0.000,0
1595390084.420,-77.148,-51.270,-48.340,-4.883,0.000,0
1595390084.424,-54.688,-54.199,-53.223,-19.043,0.000,0
1595390084.428,34.180,-52.246,-45.898,-16.602,0.000,0
1595390084.432,23.926,-56.641,-48.828,-11.719,0.000,0
1595390084.436,-69.336,-53.711,-49.805,-8.301,0.000,0
1595390084.440,-76.660,-51.758,-43.945,-12.207,0.000,0
1595390084.444,12.695,-52.246,-39.551,-20.996,0.000,0
1595390084.448,41.504,-49.316,-39.551,-16.602,0.000,0
1595390084.451,-44.922,-51.758,-38.086,-15.137,0.000,0
1595390084.455,-79.102,-53.223,-38.574,-13.672,0.000,0
1595390084.459,2.930,-45.410,-38.574,-13.672,0.000,0
1595390084.463,50.293,-45.410,-40.039,-20.996,0.000,0
1595390084.467,-18.066,-52.246,-44.922,-14.160,0.000,0
1595390084.471,-79.590,-49.805,-45.410,-12.695,0.000,0
1595390084.475,-16.113,-46.875,-34.668,-18.555,0.000,0
1595390084.479,48.828,-44.922,-33.203,-17.578,0.000,0
1595390084.483,-2.930,-44.922,-37.598,-5.371,0.000,0
1595390084.487,-86.426,-50.293,-38.086,-1.953,0.000,0
1595390084.491,-62.500,-56.641,-39.551,-13.184,0.000,0
1595390084.494,31.250,-50.781,-38.086,-14.160,0.000,0
1595390084.498,31.250,-49.805,-40.039,-5.859,0.000,0
1595390084.502,-55.176,-60.059,-43.945,-7.324,0.000,0
1595390084.506,-68.359,-60.547,-43.945,-20.996,0.000,0
1595390084.510,16.113,-56.641,-40.039,-18.066,0.000,0
1595390084.514,50.293,-52.734,-36.133,-11.719,0.000,0
1595390084.518,-26.855,-49.316,-32.227,-8.301,0.000,0
1595390084.522,-85.938,-52.734,-35.645,-13.672,0.000,0
1595390084.526,-18.066,-55.664,-38.086,-15.137,0.000,0
1595390084.530,52.734,-50.781,-39.551,-7.812,0.000,0
1595390084.534,-12.695,-58.105,-44.922,-7.324,0.000,0
1595390084.537,-86.426,-66.895,-42.969,-9.277,0.000,0
1595390084.541,-29.785,-58.594,-37.598,-9.766,0.000,0
1595390084.545,58.105,-50.781,-35.156,-5.859,0.000,0
1595390084.549,23.438,-49.316,-36.133,-3.418,0.000,0
1595390084.553,-68.359,-53.223,-39.062,-3.906,0.000,0
1595390084.557,-49.805,-57.129,-35.156,-3.418,0.000,0
1595390084.561,36.133,-52.734,-33.203,-4.883,0.000,0
1595390084.565,34.180,-46.875,-33.203,0.000,0.000,0
1595390084.569,-52.246,-52.734,-32.227,-3.906,0.000,0
1595390084.573,-74.219,-55.664,-39.062,-12.207,0.000,0
1595390084.576,7.324,-48.828,-42.480,-16.602,0.000,0
1595390084.580,43.945,-50.293,-43.457,-14.160,0.000,0
1595390084.584,-30.762,-53.223,-40.527,-5.859,0.000,0
1595390084.588,-87.402,-57.129,-40.527,-7.324,0.000,0
1595390084.592,-21.973,-56.641,-37.109,-10.254,0.000,0
1595390084.596,49.316,-47.363,-29.785,-13.672,0.000,0
1595390084.600,-2.441,-47.363,-33.691,-12.695,0.000,0
1595390084.604,-83.496,-55.664,-39.551,-9.766,0.000,0
1595390084.608,-44.922,-59.082,-42.480,-17.090,0.000,0
1595390084.612,39.062,-53.711,-43.457,-20.508,0.000,0
1595390084.616,18.066,-52.734,-42.969,-11.230,0.000,0
1595390084.619,-66.406,-58.594,-44.434,-8.789,0.000,0
1595390084.623,-59.570,-53.223,-42.969,-21.484,0.000,0
1595390084.627,18.555,-54.688,-43.945,-27.344,0.000,0
1595390084.631,21.973,-63.965,-42.480,-22.461,0.000,0
1595390084.635,-62.500,-66.406,-36.133,-17.090,0.000,0
1595390084.639,-90.820,-59.570,-36.133,-19.531,0.000,0
1595390084.643,-4.883,-50.781,-33.691,-17.090,0.000,0
1595390084.647,38.086,-51.270,-29.297,-8.301,0.000,0
1595390084.651,-36.621,-54.688,-38.574,-9.277,0.000,0
1595390084.655,-101.074,-57.129,-48.828,-13.672,0.000,0
1595390084.659,-40.039,-54.688,-45.410,-15.137,0.000,0
1595390084.662,40.039,-50.781,-41.992,-22.461,0.000,0
1595390084.666,-12.207,-57.129,-42.969,-22.461,0.000,0
1595390084.670,-95.215,-62.500,-45.410,-18.066,0.000,0
1595390084.674,-65.430,-61.035,-49.316,-28.320,0.000,0
1595390084.678,14.648,-60.059,-53.223,-29.297,0.000,0
1595390084.682,2.930,-60.547,-48.340,-16.113,0.000,0
1595390084.686,-80.078,-58.594,-50.293,-15.625,0.000,0
1595390084.690,-79.102,-52.734,-55.176,-19.043,0.000,0
1595390084.694,16.113,-47.852,-46.387,-14.160,0.000,0
1595390084.698,38.086,-44.922,-39.551,-10.254,0.000,0
1595390084.701,-56.641,-55.176,-43.457,-14.648,0.000,0
1595390084.705,-95.703,-62.988,-44.922,-17.578,0.000,0
1595390084.709,-6.348,-60.547,-39.551,-12.207,0.000,0
1595390084.713,46.875,-59.570,-38.086,-14.160,0.000,0
1595390084.717,-21.973,-54.199,-36.133,-17.090,0.000,0
1595390084.721,-90.820,-54.199,-35.645,-21.484,0.000,0
1595390084.725,-34.668,-54.688,-36.621,-19.531,0.000,0
1595390084.729,44.434,-58.594,-42.969,-20.508,0.000,0
1595390084.733,1.465,-55.664,-48.828,-25.391,0.000,0
1595390084.737,-83.496,-51.758,-54.199,-23.438,0.000,0
1595390084.741,-60.547,-53.223,-57.617,-27.344,0.000,0
1595390084.744,30.273,-51.758,-53.711,-36.621,0.000,0
1595390084.748,27.344,-55.176,-46.387,-37.598,0.000,0
1595390084.752,-66.895,-58.594,-39.062,-23.438,0.000,0
1595390084.756,-88.379,-56.641,-31.250,-19.531,0.000,0
1595390084.760,9.766,-50.781,-30.273,-22.949,0.000,0
1595390084.764,44.434,-47.852,-33.691,-12.207,0.000,0
1595390084.768,-46.875,-51.758,-41.992,-6.836,0.000,0
1595390084.772,-85.449,-54.688,-44.922,-14.648,0.000,0
1595390084.776,-16.113,-54.688,-40.039,-23.438,0.000,0
1595390084.780,38.086,-54.688,-43.945,-20.020,0.000,0
1595390084.784,-22.461,-57.617,-47.852,-10.742,0.000,0
1595390084.787,-89.355,-59.082,-48.828,-18.555,0.000,0
1595390084.791,-44.434,-61.035,-50.781,-32.227,0.000,0
1595390084.795,36.621,-61.035,-50.293,-25.391,0.000,0
1595390084.799,11.230,-57.129,-48.340,-16.113,0.000,0
1595390084.803,-85.449,-54.688,-45.410,-22.461,0.000,0
1595390084.807,-74.219,-57.617,-41.504,-20.996,0.000,0
1595390084.811,30.273,-61.035,-46.387,-18.066,0.000,0
1595390084.815,40.527,-55.176,-45.410,-15.625,0.000,0
1595390084.819,-48.340,-52.246,-36.133,-7.812,0.000,0
1595390084.823,-65.430,-53.223,-39.062,-7.812,0.000,0
1595390084.826,16.602,-56.641,-40.527,-14.160,0.000,0
1595390084.830,42.969,-58.105,-39.062,-14.160,0.000,0
1595390084.834,-42.480,-54.199,-38.574,-11.230,0.000,0
1595390084.838,-92.285,-56.152,-41.504,-2.930,0.000,0
1595390084.842,-24.414,-58.594,-39.551,-12.695,0.000,0
1595390084.846,41.504,-56.152,-35.156,-26.855,0.000,0
1595390084.850,-7.324,-52.246,-35.156,-13.672,0.000,0
1595390084.854,-89.355,-49.316,-37.598,-6.348,0.000,0
1595390084.858,-54.688,-56.152,-41.992,-15.625,0.000,0
1595390084.862,31.738,-55.664,-40.039,-22.461,0.000,0
1595390084.866,16.602,-49.316,-31.738,-17.090,0.000,0
1595390084.869,-75.195,-49.316,-37.598,-12.207,0.000,0
1595390084.873,-76.172,-48.340,-41.504,-19.531,0.000,0
1595390084.877,23.438,-48.828,-35.156,-11.719,0.000,0
1595390084.881,39.062,-53.711,-38.086,-1.953,0.000,0
1595390084.885,-53.223,-51.758,-41.504,-5.859,0.000,0
1595390084.889,-80.566,-50.781,-41.016,-14.648,0.000,0
1595390084.893,-0.488,-53.711,-42.969,-20.996,0.000,0
1595390084.897,37.109,-52.246,-45.898,-18.555,0.000,0
1595390084.901,-34.668,-51.270,-47.852,-11.719,0.000,0
1595390084.905,-89.355,-50.293,-46.387,-6.836,0.000,0
1595390084.909,-29.785,-53.711,-42.969,-18.555,0.000,0
1595390084.912,43.457,-54.688,-43.457,-25.879,0.000,0
1595390084.916,-5.371,-53.711,-47.363,-23.438,0.000,0
1595390084.920,-85.449,-53.223,-46.387,-19.043,0.000,0
1595390084.924,-53.223,-52.246,-45.410,-15.137,0.000,0
1595390084.928,35.156,-49.805,-46.387,-16.602,0.000,0
1595390084.932,21.973,-47.852,-46.387,-17.090,0.000,0
1595390084.936,-74.219,-51.758,-49.805,-27.832,0.000,0
1595390084.940,-72.266,-50.781,-51.270,-35.156,0.000,0
1595390084.944,19.531,-44.922,-56.152,-37.109,0.000,0
1595390084.948,45.898,-49.316,-60.059,-25.391,0.000,0
1595390084.951,-31.738,-56.641,-51.270,-12.207,0.000,0
1595390084.955,-92.285,-52.734,-39.551,-24.902,0.000,0
1595390084.959,-32.715,-51.758,-37.109,-33.691,0.000,0
1595390084.963,33.203,-50.781,-42.480,-23.438,0.000,0
1595390084.967,-36.133,-52.246,-42.480,-27.344,0.000,0
1595390084.971,-110.352,-55.664,-47.852,-39.551,0.000,0
1595390084.975,-55.176,-51.758,-47.852,-37.598,0.000,0
1595390084.979,24.902,-44.922,-44.434,-28.809,0.000,0
1595390084.983,-3.418,-46.875,-44.922,-18.555,0.000,0
1595390084.987,-89.844,-51.758,-53.223,-14.648,0.000,0
1595390084.991,-67.871,-49.316,-57.617,-17.578,0.000,0
1595390084.994,40.527,-51.270,-50.293,-18.066,0.000,0
1595390084.998,36.133,-51.270,-46.875,-15.137,0.000,0
1595390085.002,-67.383,-51.270,-50.293,-16.602,0.000,0
1595390085.006,-70.801,-51.270,-51.758,-14.160,0.000,0
1595390085.010,20.508,-48.340,-46.387,-16.113,0.000,0
1595390085.014,37.109,-47.852,-39.062,-21.973,0.000,0
1595390085.018,-46.387,-49.805,-41.016,-19.531,0.000,0
1595390085.022,-83.496,-50.781,-47.363,-16.113,0.000,0
1595390085.026,-9.277,-50.781,-45.410,-10.742,0.000,0
1595390085.030,48.828,-50.781,-44.922,-12.695,0.000,0
1595390085.034,-11.230,-51.758,-44.922,-14.648,0.000,0
1595390085.037,-88.867,-51.758,-44.434,-13.672,0.000,0
1595390085.041,-46.875,-49.316,-41.016,-11.230,0.000,0
1595390085.045,38.574,-50.293,-38.086,-15.137,0.000,0
1595390085.049,9.277,-49.805,-41.504,-18.555,0.000,0
1595390085.053,-84.473,-50.781,-41.016,-5.859,0.000,0
1595390085.057,-74.219,-48.340,-40.039,-7.324,0.000,0
1595390085.061,23.926,-42.480,-41.992,-17.578,0.000,0
1595390085.065,38.574,-45.410,-41.504,-12.207,0.000,0
1595390085.069,-55.664,-47.852,-39.062,-7.812,0.000,0
1595390085.073,-81.543,-45.410,-43.945,-14.160,0.000,0
1595390085.076,-2.441,-47.363,-50.781,-25.879,0.000,0
1595390085.080,26.855,-48.340,-49.316,-21.484,0.000,0
1595390085.084,-48.828,-47.363,-42.969,-14.160,0.000,0
1595390085.088,-93.750,-46.387,-43.457,-15.625,0.000,0
1595390085.092,-21.484,-45.410,-41.504,-20.996,0.000,0
1595390085.096,46.875,-44.922,-33.691,-21.973,0.000,0
1595390085.100,-7.324,-44.922,-30.762,-15.625,0.000,0
1595390085.104,-94.238,-45.410,-38.574,-20.508,0.000,0
1595390085.108,-55.176,-42.969,-42.969,-32.227,0.000,0
1595390085.112,33.203,-43.945,-42.480,-34.180,0.000,0
1595390085.116,12.207,-48.828,-42.480,-23.438,0.000,0
1595390085.119,-74.219,-51.270,-38.086,-19.043,0.000,0
1595390085.123,-60.547,-52.246,-35.645,-25.391,0.000,0
1595390085.127,28.809,-51.270,-32.715,-19.531,0.000,0
1595390085.131,29.297,-47.852,-31.738,-11.719,0.000,0
1595390085.135,-50.781,-50.293,-33.203,-11.230,0.000,0
1595390085.139,-77.637,-54.199,-37.109,-14.648,0.000,0
1595390085.143,5.371,-52.734,-40.527,-17.090,0.000,0
1595390085.147,46.875,-48.340,-43.457,-22.461,0.000,0
1595390085.151,-33.203,-41.992,-40.527,-23.926,0.000,0
1595390085.155,-93.750,-41.016,-41.504,-21.973,0.000,0
1595390085.159,-32.227,-41.504,-39.062,-24.414,0.000,0
1595390085.162,41.504,-41.504,-35.645,-18.066,0.000,0
1595390085.166,-6.836,-42.480,-36.621,-8.301,0.000,0
1595390085.170,-84.473,-42.969,-36.621,-14.648,0.000,0
1595390085.174,-47.852,-38.086,-34.668,-22.461,0.000,0
1595390085.178,43.945,-35.156,-31.250,-15.625,0.000,0
1595390085.182,31.738,-38.574,-32.715,-11.230,0.000,0
1595390085.186,-64.453,-44.434,-35.645,-11.719,0.000,0
1595390085.190,-69.336,-45.410,-36.133,-9.277,0.000,0
1595390085.194,16.113,-40.527,-37.598,-16.113,0.000,0
1595390085.198,35.645,-41.992,-45.410,-17.578,0.000,0
1595390085.201,-39.551,-42.480,-44.434,-4.395,0.000,0
1595390085.205,-74.707,-42.969,-42.969,0.000,0.000,0
1595390085.209,-2.441,-41.504,-40.527,-2.441,0.000,0
1595390085.213,50.293,-39.062,-41.504,-1.953,0.000,0
1595390085.217,-16.113,-43.457,-40.039,-1.465,0.000,0
1595390085.221,-79.102,-42.480,-33.203,-4.395,0.000,0
1595390085.225,-20.508,-40.527,-33.203,-9.277,0.000,0
1595390085.229,55.664,-42.480,-40.527,-2.930,0.000,0
1595390085.233,7.812,-42.480,-48.340,0.977,0.000,0
1595390085.237,-77.148,-45.410,-47.363,-0.977,0.000,0
1595390085.241,-49.316,-49.316,-44.434,-7.812,0.000,0
1595390085.244,40.527,-50.293,-42.969,-10.742,0.000,0
1595390085.248,35.645,-50.781,-42.480,-4.395,0.000,0
1595390085.252,-61.523,-53.711,-42.969,-6.348,0.000,0
1595390085.256,-73.730,-54.199,-39.062,-12.207,0.000,0
1595390085.260,24.414,-49.316,-35.645,-12.207,0.000,0
1595390085.264,45.410,-50.293,-41.992,-12.695,0.000,0
1595390085.268,-36.133,-50.781,-42.480,-9.277,0.000,0
1595390085.272,-80.566,-53.223,-42.969,-9.277,0.000,0
1595390085.276,-16.113,-58.105,-41.504,-14.648,0.000,0
1595390085.280,42.480,-61.523,-41.992,-13.184,0.000,0
1595390085.284,-19.531,-61.035,-45.410,-15.137,0.000,0
1595390085.287,-87.891,-56.641,-42.969,-13.672,0.000,0
1595390085.291,-36.133,-54.199,-42.480,-14.648,0.000,0
1595390085.295,49.316,-48.828,-47.363,-14.648,0.000,0
1595390085.299,8.789,-51.270,-52.734,-16.113,0.000,0
1595390085.303,-78.125,-49.805,-51.758,-15.625,0.000,0
1595390085.307,-45.898,-44.434,-44.922,-16.113,0.000,0
1595390085.311,35.645,-54.688,-44.922,-28.809,0.000,0
1595390085.315,19.531,-62.012,-51.270,-30.762,0.000,0
1595390085.319,-69.336,-63.965,-47.852,-23.438,0.000,0
1595390085.323,-85.938,-66.895,-44.434,-24.902,0.000,0
1595390085.326,11.719,-63.965,-47.363,-23.926,0.000,0
1595390085.330,47.852,-61.523,-50.293,-20.020,0.000,0
1595390085.334,-41.992,-54.688,-47.852,-19.531,0.000,0
1595390085.338,-88.379,-47.363,-46.875,-11.230,0.000,0
1595390085.342,-17.090,-50.293,-47.852,-14.648,0.000,0
1595390085.346,44.922,-54.688,-48.828,-17.090,0.000,0
1595390085.350,-15.137,-59.570,-54.199,-14.648,0.000,0
1595390085.354,-88.379,-60.059,-54.199,-15.137,0.000,0
1595390085.358,-42.969,-58.105,-48.828,-20.508,0.000,0
1595390085.362,40.039,-55.176,-52.246,-20.508,0.000,0
1595390085.366,14.648,-51.270,-54.688,-13.184,0.000,0
1595390085.369,-75.684,-56.152,-53.711,-17.578,0.000,0
1595390085.373,-59.082,-59.082,-52.246,-20.020,0.000,0
1595390085.377,27.832,-52.246,-50.293,-17.578,0.000,0
1595390085.381,26.855,-52.734,-49.316,-11.719,0.000,0
1595390085.385,-60.547,-57.617,-53.223,-11.230,0.000,0
1595390085.389,-83.496,-59.082,-56.152,-12.695,0.000,0
1595390085.393,1.465,-60.059,-60.547,-21.973,0.000,0
1595390085.397,42.480,-58.105,-67.383,-25.391,0.000,0
1595390085.401,-36.621,-62.988,-66.895,-20.020,0.000,0
1595390085.405,-90.332,-61.523,-60.059,-21.484,0.000,0
1595390085.409,-31.738,-58.594,-58.594,-20.508,0.000,0
1595390085.412,38.086,-58.105,-61.035,-13.184,0.000,0
1595390085.416,-5.371,-49.805,-54.688,-5.371,0.000,0
1595390085.420,-89.355,-48.340,-51.758,-11.719,0.000,0
1595390085.424,-44.434,-53.711,-54.199,-23.926,0.000,0
1595390085.428,55.176,-54.688,-56.641,-20.996,0.000,0
1595390085.432,27.344,-50.293,-55.664,-11.719,0.000,0
1595390085.436,-76.660,-51.758,-54.199,-12.207,0.000,0
1595390085.440,-78.613,-56.152,-56.152,-19.043,0.000,0
1595390085.444,24.414,-49.316,-52.246,-16.602,0.000,0
1595390085.448,49.805,-42.480,-50.781,-8.301,0.000,0
1595390085.451,-40.039,-41.016,-51.270,-13.184,0.000,0
1595390085.455,-83.008,-45.410,-54.199,-19.531,0.000,0
1595390085.459,-3.418,-48.340,-57.617,-22.461,0.000,0
1595390085.463,50.781,-53.223,-62.012,-24.902,0.000,0
1595390085.467,-23.926,-54.688,-64.453,-24.414,0.000,0
1595390085.471,-93.262,-53.711,-66.895,-32.715,0.000,0
1595390085.475,-33.691,-56.641,-66.406,-39.551,0.000,0
1595390085.479,48.340,-52.734,-57.129,-36.133,0.000,0
1595390085.483,12.695,-48.340,-46.875,-22.949,0.000,0
1595390085.487,-72.754,-41.992,-43.457,-11.230,0.000,0
1595390085.491,-57.129,-43.457,-47.363,-18.555,0.000,0
1595390085.494,28.809,-48.340,-50.781,-29.785,0.000,0
1595390085.498,11.719,-48.828,-53.223,-25.391,0.000,0
1595390085.502,-86.914,-57.129,-61.035,-29.297,0.000,0
1595390085.506,-86.426,-60.547,-62.988,-29.297,0.000,0
1595390085.510,13.184,-60.059,-58.105,-24.414,0.000,0
1595390085.514,36.621,-58.594,-52.246,-23.438,0.000,0
1595390085.518,-46.875,-52.734,-53.223,-8.301,0.000,0
1595390085.522,-86.914,-53.711,-58.594,-9.277,0.000,0
1595390085.526,-12.207,-51.758,-52.734,-24.414,0.000,0
1595390085.530,43.457,-53.711,-56.152,-21.973,0.000,0
1595390085.534,-12.207,-54.199,-55.176,-14.160,0.000,0
1595390085.537,-81.055,-56.152,-56.641,-19.043,0.000,0
1595390085.541,-37.598,-63.477,-60.547,-31.738,0.000,0
1595390085.545,41.504,-62.012,-58.594,-36.133,0.000,0
1595390085.549,9.766,-59.082,-60.547,-27.344,0.000,0
1595390085.553,-75.684,-57.617,-57.129,-19.531,0.000,0
1595390085.557,-69.824,-62.500,-56.641,-22.949,0.000,0
1595390085.561,23.438,-59.570,-52.734,-20.020,0.000,0
1595390085.565,26.367,-53.711,-47.852,-7.812,0.000,0
1595390085.569,-68.848,-53.711,-44.922,-4.395,0.000,0
1595390085.573,-84.961,-50.781,-43.457,-12.695,0.000,0
1595390085.576,4.883,-49.805,-40.527,-15.137,0.000,0
1595390085.580,41.504,-54.688,-45.898,-14.648,0.000,0
1595390085.584,-38.086,-57.129,-47.852,-9.766,0.000,0
1595390085.588,-86.914,-54.688,-48.828,-12.207,0.000,0
1595390085.592,-14.648,-49.316,-49.805,-21.484,0.000,0
1595390085.596,55.664,-46.387,-44.434,-15.625,0.000,0
1595390085.600,3.906,-49.316,-43.457,-4.395,0.000,0
1595390085.604,-69.336,-52.246,-42.480,-4.395,0.000,0
1595390085.608,-32.227,-53.711,-42.480,-4.395,0.000,0
1595390085.612,48.828,-52.246,-40.039,0.000,0.000,0
1595390085.616,20.020,-49.316,-39.551,0.488,0.000,0
1595390085.619,-74.219,-45.410,-44.922,-3.418,0.000,0
1595390085.623,-62.012,-37.598,-43.457,-4.395,0.000,0
1595390085.627,32.715,-39.551,-41.992,-3.906,0.000,0
1595390085.631,38.574,-47.852,-49.316,-9.277,0.000,0
1595390085.635,-54.199,-47.363,-49.316,-8.301,0.000,0
1595390085.639,-74.707,-38.574,-40.039,-2.441,0.000,0
1595390085.643,9.766,-43.457,-41.016,-6.348,0.000,0
1595390085.647,52.246,-53.223,-52.734,-4.395,0.000,0
1595390085.651,-20.996,-52.734,-55.176,3.906,0.000,0
1595390085.655,-72.266,-51.758,-52.734,0.977,0.000,0
1595390085.659,-2.930,-49.805,-49.805,-2.441,0.000,0
1595390085.662,60.059,-49.316,-46.387,-3.418,0.000,0
1595390085.666,6.836,-52.246,-49.316,-4.395,0.000,0
1595390085.670,-80.566,-59.082,-58.105,-2.930,0.000,0
1595390085.674,-50.293,-57.617,-54.688,-7.324,0.000,0
1595390085.678,37.109,-50.781,-53.223,-16.602,0.000,0
1595390085.682,19.531,-48.828,-55.176,-6.836,0.000,0
1595390085.686,-75.195,-55.176,-55.176,-0.488,0.000,0
1595390085.690,-79.590,-57.617,-58.594,-6.836,0.000,0
1595390085.694,22.461,-49.316,-58.594,-4.883,0.000,0
1595390085.698,43.945,-49.805,-59.082,-2.930,0.000,0
1595390085.701,-49.805,-57.129,-61.523,0.488,0.000,0
1595390085.705,-86.426,-54.199,-60.547,-8.789,0.000,0
1595390085.709,-3.418,-51.270,-58.594,-25.391,0.000,0
1595390085.713,48.828,-54.199,-54.688,-20.020,0.000,0
1595390085.717,-23.926,-51.270,-51.758,-8.301,0.000,0
1595390085.721,-86.914,-55.176,-55.664,-13.672,0.000,0
1595390085.725,-22.949,-60.059,-52.734,-20.508,0.000,0
1595390085.729,48.340,-55.176,-50.781,-12.695,0.000,0
1595390085.733,-0.977,-58.105,-53.223,-4.395,0.000,0
1595390085.737,-87.402,-60.547,-56.641,-12.207,0.000,0
1595390085.741,-60.547,-56.641,-51.758,-20.020,0.000,0
1595390085.744,39.551,-53.711,-48.828,-15.625,0.000,0
1595390085.748,31.250,-55.664,-54.199,-11.719,0.000,0
1595390085.752,-71.777,-54.688,-53.711,-12.695,0.000,0
1595390085.756,-80.078,-51.270,-55.176,-14.648,0.000,0
1595390085.760,6.836,-54.688,-54.688,-14.160,0.000,0
1595390085.764,30.762,-55.664,-50.781,-18.066,0.000,0
1595390085.768,-44.434,-49.316,-45.898,-17.578,0.000,0
1595390085.772,-82.520,-49.316,-45.410,-11.719,0.000,0
1595390085.776,-7.812,-49.805,-49.805,-20.508,0.000,0
1595390085.780,57.129,-50.781,-49.316,-18.555,0.000,0
1595390085.784,-8.301,-50.781,-47.852,-6.836,0.000,0
1595390085.787,-87.891,-49.805,-54.199,-14.160,0.000,0
1595390085.791,-42.480,-51.270,-53.223,-19.043,0.000,0
1595390085.795,40.039,-47.852,-51.758,-20.020,0.000,0
1595390085.799,7.324,-42.480,-52.246,-19.531,0.000,0
1595390085.803,-88.867,-43.945,-57.617,-16.602,0.000,0
1595390085.807,-64.941,-45.410,-54.688,-19.531,0.000,0
1595390085.811,39.062,-44.922,-48.340,-18.066,0.000,0
1595390085.815,30.273,-46.875,-52.246,-13.672,0.000,0
1595390085.819,-68.359,-51.270,-52.734,-8.789,0.000,0
1595390085.823,-77.637,-54.688,-50.293,-8.789,0.000,0
1595390085.826,6.348,-56.152,-49.316,-14.648,0.000,0
1595390085.830,38.086,-56.152,-48.340,-12.207,0.000,0
1595390085.834,-28.809,-51.758,-44.922,-10.742,0.000,0
1595390085.838,-71.289,-51.758,-47.852,-13.184,0.000,0
1595390085.842,-9.277,-49.805,-50.293,-7.324,0.000,0
1595390085.846,45.898,-48.828,-53.223,-7.324,0.000,0
1595390085.850,-6.348,-44.434,-49.805,-3.418,0.000,0
1595390085.854,-81.055,-37.109,-50.293,-1.465,0.000,0
1595390085.858,-34.668,-39.551,-51.270,-8.789,0.000,0
1595390085.862,53.711,-43.945,-49.805,-6.836,0.000,0
1595390085.866,20.508,-51.270,-52.246,-7.812,0.000,0
1595390085.869,-65.430,-55.176,-46.875,-11.719,0.000,0
1595390085.873,-57.129,-57.129,-42.480,-18.066,0.000,0
1595390085.877,34.180,-52.246,-41.016,-11.719,0.000,0
1595390085.881,38.574,-49.805,-44.434,-8.789,0.000,0
1595390085.885,-58.594,-50.781,-47.363,-14.648,0.000,0
1595390085.889,-72.266,-47.363,-41.992,-3.418,0.000,0
1595390085.893,12.695,-51.270,-41.016,7.324,0.000,0
1595390085.897,44.434,-50.781,-44.922,0.488,0.000,0
1595390085.901,-25.391,-50.293,-44.434,-3.906,0.000,0
1595390085.905,-82.520,-59.570,-45.898,-2.930,0.000,0
1595390085.909,-20.996,-58.594,-44.922,-1.953,0.000,0
1595390085.912,53.711,-51.270,-44.922,-0.977,0.000,0
1595390085.916,0.000,-51.758,-45.410,0.488,0.000,0
1595390085.920,-82.031,-52.246,-45.410,3.418,0.000,0
1595390085.924,-36.133,-50.781,-40.527,-3.418,0.000,0
1595390085.928,53.223,-44.922,-36.133,-5.859,0.000,0
1595390085.932,22.461,-50.293,-44.434,-4.395,0.000,0
1595390085.936,-76.172,-64.941,-50.293,-5.859,0.000,0
1595390085.940,-72.266,-63.965,-44.434,-6.348,0.000,0
1595390085.944,17.578,-56.152,-36.133,-15.137,0.000,0
1595390085.948,38.086,-54.199,-39.551,-14.160,0.000,0
1595390085.951,-37.598,-58.105,-45.410,-4.883,0.000,0
1595390085.955,-75.684,-62.012,-49.805,-3.418,0.000,0
1595390085.959,-0.977,-57.129,-50.293,-4.395,0.000,0
1595390085.963,58.105,-54.688,-52.734,0.488,0.000,0
1595390085.967,-14.160,-58.105,-58.594,-1.465,0.000,0
1595390085.971,-93.262,-55.664,-61.035,-3.418,0.000,0
1595390085.975,-31.250,-43.457,-58.105,1.465,0.000,0
1595390085.979,51.270,-41.992,-61.035,-2.930,0.000,0
1595390085.983,-0.977,-54.688,-69.824,-7.324,0.000,0
1595390085.987,-89.355,-62.012,-74.707,-4.883,0.000,0
1595390085.991,-61.523,-61.523,-73.730,-6.836,0.000,0
1595390085.994,38.574,-58.105,-71.777,-15.137,0.000,0
1595390085.998,34.180,-57.129,-72.266,-9.766,0.000,0
1595390086.002,-64.941,-58.594,-66.895,-5.859,0.000,0
1595390086.006,-72.266,-56.152,-62.012,-13.672,0.000,0
1595390086.010,29.297,-53.711,-62.012,-15.137,0.000,0
1595390086.014,48.340,-58.105,-63.965,-24.902,0.000,0
1595390086.018,-58.105,-59.082,-67.383,-25.391,0.000,0
1595390086.022,-97.656,-59.570,-71.777,-18.555,0.000,0
1595390086.026,-12.207,-62.012,-73.730,-26.367,0.000,0
1595390086.030,44.922,-57.129,-72.754,-17.090,0.000,0
1595390086.034,-17.578,-53.711,-69.824,-13.184,0.000,0
1595390086.037,-90.332,-59.570,-66.895,-25.879,0.000,0
1595390086.041,-32.715,-61.035,-65.430,-18.066,0.000,0
1595390086.045,56.152,-56.641,-63.965,-17.578,0.000,0
1595390086.049,8.789,-54.688,-57.129,-19.043,0.000,0
1595390086.053,-87.402,-61.035,-58.594,-15.137,0.000,0
1595390086.057,-56.641,-60.059,-60.547,-12.207,0.000,0
1595390086.061,44.434,-52.246,-50.293,-7.812,0.000,0
1595390086.065,38.086,-55.664,-48.828,-8.789,0.000,0
1595390086.069,-63.477,-57.617,-55.664,-8.301,0.000,0
1595390086.073,-81.055,-56.152,-58.105,-6.836,0.000,0
1595390086.076,10.254,-54.199,-57.617,-11.719,0.000,0
1595390086.080,41.992,-50.781,-56.641,-18.066,0.000,0
1595390086.084,-49.805,-54.688,-53.711,-13.184,0.000,0
1595390086.088,-95.703,-56.641,-52.734,-5.371,0.000,0
1595390086.092,-19.531,-48.828,-49.316,-8.301,0.000,0
1595390086.096,40.039,-48.828,-45.410,-9.277,0.000,0
1595390086.100,-16.113,-51.758,-46.387,-7.324,0.000,0
1595390086.104,-81.055,-41.016,-47.363,-6.348,0.000,0
1595390086.108,-36.133,-37.598,-44.434,-9.277,0.000,0
1595390086.112,45.898,-41.504,-43.457,-16.113,0.000,0
1595390086.116,17.578,-42.480,-49.805,-11.230,0.000,0
1595390086.119,-77.637,-45.898,-52.246,-13.184,0.000,0
1595390086.123,-71.777,-47.363,-45.410,-20.020,0.000,0
1595390086.127,10.254,-42.969,-39.062,-22.949,0.000,0
1595390086.131,6.836,-42.480,-35.645,-25.391,0.000,0
1595390086.135,-72.754,-44.922,-36.133,-17.578,0.000,0
1595390086.139,-94.238,-42.480,-31.738,-18.555,0.000,0
1595390086.143,-22.461,-50.781,-28.809,-25.391,0.000,0
1595390086.147,8.301,-58.105,-33.203,-39.551,0.000,0
1595390086.151,-80.078,-47.363,-31.738,-59.082,0.000,0
1595390086.155,-157.227,-34.180,-38.574,-75.684,0.000,0
1595390086.159,-118.652,-28.320,-45.410,-104.980,0.000,0
1595390086.162,-73.730,-33.203,-53.223,-132.812,0.000,0
1595390086.166,-151.855,-34.180,-63.965,-158.203,0.000,0
1595390086.170,-246.094,-28.809,-67.383,-180.664,0.000,0
1595390086.174,-238.281,-23.438,-67.383,-220.215,0.000,0
1595390086.178,-172.363,-20.020,-62.500,-250.488,0.000,0
1595390086.182,-199.707,-22.949,-63.477,-255.859,0.000,0
1595390086.186,-321.289,-20.996,-71.777,-279.297,0.000,0
1595390086.190,-332.031,-18.066,-81.055,-294.434,0.000,0
1595390086.194,-244.141,-15.625,-82.520,-306.641,0.000,0
1595390086.198,-242.188,-8.789,-82.520,-316.895,0.000,0
1595390086.201,-328.125,-0.488,-84.961,-320.801,0.000,0
1595390086.205,-364.258,3.418,-86.914,-333.984,0.000,0
1595390086.209,-287.109,4.883,-86.426,-334.961,0.000,0
1595390086.213,-225.098,15.137,-86.426,-322.754,0.000,0
1595390086.217,-287.109,17.090,-96.191,-315.918,0.000,0
1595390086.221,-344.727,12.207,-104.492,-313.477,0.000,0
1595390086.225,-262.207,15.137,-98.633,-300.293,0.000,0
1595390086.229,-166.016,21.484,-102.051,-291.504,0.000,0
1595390086.233,-208.496,20.996,-107.910,-284.180,0.000,0
1595390086.237,-289.062,21.973,-111.328,-268.066,0.000,0
1595390086.241,-248.535,25.879,-113.281,-264.160,0.000,0
1595390086.244,-147.461,30.762,-107.422,-254.395,0.000,0
1595390086.248,-150.879,32.715,-109.375,-235.840,0.000,0
1595390086.252,-230.469,30.762,-117.676,-226.074,0.000,0
1595390086.256,-219.238,31.250,-120.605,-210.449,0.000,0
1595390086.260,-103.516,31.250,-112.305,-185.059,0.000,0
1595390086.264,-61.035,30.273,-107.422,-172.363,0.000,0
1595390086.268,-136.719,28.320,-106.934,-155.762,0.000,0
1595390086.272,-162.109,29.785,-108.887,-129.395,0.000,0
1595390086.276,-76.172,29.785,-109.863,-128.906,0.000,0
1595390086.280,-1.465,29.297,-102.051,-116.699,0.000,0
1595390086.284,-41.016,26.855,-96.191,-83.984,0.000,0
1595390086.287,-100.586,21.484,-95.215,-58.105,0.000,0
1595390086.291,-38.574,18.066,-96.191,-54.199,0.000,0
1595390086.295,48.828,12.695,-94.238,-48.828,0.000,0
1595390086.299,24.902,5.371,-83.984,-21.973,0.000,0
1595390086.303,-44.434,-2.441,-82.520,-18.555,0.000,0
1595390086.307,-15.625,-2.441,-80.566,-13.184,0.000,0
1595390086.311,88.867,0.000,-72.754,5.859,0.000,0
1595390086.315,107.422,-7.324,-68.848,31.738,0.000,0
1595390086.319,25.879,-15.137,-65.430,45.898,0.000,0
1595390086.323,17.578,-19.531,-58.594,46.387,0.000,0
1595390086.326,115.234,-29.785,-57.617,62.500,0.000,0
1595390086.330,150.391,-37.598,-57.617,65.918,0.000,0
1595390086.334,81.055,-32.227,-53.223,72.266,0.000,0
1595390086.338,50.781,-30.762,-46.387,92.285,0.000,0
1595390086.342,120.117,-42.480,-38.086,96.680,0.000,0
1595390086.346,179.199,-50.781,-35.645,99.121,0.000,0
1595390086.350,125.977,-52.246,-33.203,115.234,0.000,0
1595390086.354,44.434,-57.129,-24.414,120.117,0.000,0
1595390086.358,90.820,-64.941,-16.113,125.977,0.000,0
1595390086.362,177.734,-63.477,-12.695,132.324,0.000,0
1595390086.366,150.391,-61.523,-5.859,129.395,0.000,0
1595390086.369,62.500,-68.359,-1.465,134.766,0.000,0
1595390086.373,66.895,-78.125,-1.953,131.836,0.000,0
1595390086.377,165.039,-76.172,5.859,136.719,0.000,0
1595390086.381,168.945,-83.496,10.742,144.043,0.000,0
1595390086.385,65.430,-100.098,18.066,138.184,0.000,0
1595390086.389,41.992,-103.516,19.531,130.859,0.000,0
1595390086.393,130.859,-104.492,16.113,127.930,0.000,0
1595390086.397,162.598,-105.469,16.113,135.742,0.000,0
1595390086.401,77.637,-104.492,24.414,137.695,0.000,0
1595390086.405,25.391,-104.004,27.832,138.672,0.000,0
1595390086.409,83.984,-106.934,28.320,139.648,0.000,0
1595390086.412,148.438,-111.816,35.156,141.602,0.000,0
1595390086.416,101.074,-113.281,40.527,144.531,0.000,0
1595390086.420,24.414,-114.746,40.527,144.043,0.000,0
1595390086.424,66.406,-112.793,47.852,143.555,0.000,0
1595390086.428,147.461,-107.910,56.152,146.484,0.000,0
1595390086.432,115.723,-114.746,56.152,141.113,0.000,0
1595390086.436,26.855,-121.094,48.828,136.719,0.000,0
1595390086.440,44.922,-111.328,41.504,145.996,0.000,0
1595390086.444,139.160,-100.098,42.969,147.949,0.000,0
1595390086.448,147.461,-98.633,35.156,142.090,0.000,0
1595390086.451,60.059,-94.238,28.320,141.602,0.000,0
1595390086.455,21.973,-86.914,25.879,132.324,0.000,0
1595390086.459,106.934,-84.961,20.020,125.977,0.000,0
1595390086.463,156.250,-84.961,17.578,126.953,0.000,0
1595390086.467,77.148,-85.938,12.207,120.117,0.000,0
1595390086.471,11.719,-90.820,1.953,114.746,0.000,0
1595390086.475,74.219,-91.309,2.930,118.164,0.000,0
1595390086.479,153.809,-83.984,4.395,114.258,0.000,0
1595390086.483,105.469,-83.984,3.418,112.305,0.000,0
1595390086.487,12.207,-81.055,-2.441,110.352,0.000,0
1595390086.491,35.645,-81.543,-9.277,99.121,0.000,0
1595390086.494,125.000,-83.008,-4.883,103.516,0.000,0
1595390086.498,115.234,-80.566,-3.418,108.398,0.000,0
1595390086.502,22.949,-80.566,-10.254,96.191,0.000,0
1595390086.506,12.695,-82.031,-11.230,87.402,0.000,0
1595390086.510,100.586,-78.125,-4.883,87.402,0.000,0
1595390086.514,124.023,-69.824,-0.488,93.262,0.000,0
1595390086.518,38.086,-72.754,-5.859,96.680,0.000,0
1595390086.522,-3.906,-77.637,-11.719,90.332,0.000,0
1595390086.526,64.941,-73.730,-12.695,80.566,0.000,0
1595390086.530,115.234,-73.242,-17.578,71.289,0.000,0
1595390086.534,49.316,-71.289,-20.996,76.172,0.000,0
1595390086.537,-22.949,-70.312,-26.367,67.383,0.000,0
1595390086.541,21.484,-73.730,-25.391,56.641,0.000,0
1595390086.545,105.469,-74.219,-15.137,59.570,0.000,0
1595390086.549,72.266,-74.219,-17.090,58.105,0.000,0
1595390086.553,-35.645,-74.707,-21.973,47.852,0.000,0
1595390086.557,-27.832,-66.406,-17.578,40.527,0.000,0
1595390086.561,73.730,-56.641,-11.230,45.898,0.000,0
1595390086.565,66.895,-57.129,-10.742,47.852,0.000,0
1595390086.569,-27.344,-60.059,-15.137,43.457,0.000,0
1595390086.573,-33.691,-61.035,-20.020,39.062,0.000,0
1595390086.576,48.828,-63.477,-20.996,34.180,0.000,0
1595390086.580,68.848,-62.988,-15.625,35.156,0.000,0
1595390086.584,-12.207,-58.594,-13.184,40.527,0.000,0
1595390086.588,-56.152,-62.988,-14.648,33.203,0.000,0
1595390086.592,17.090,-65.430,-9.277,32.227,0.000,0
1595390086.596,79.102,-61.035,-17.090,28.809,0.000,0
1595390086.600,15.625,-56.152,-22.949,26.855,0.000,0
1595390086.604,-61.035,-60.059,-20.996,26.367,0.000,0
1595390086.608,-4.395,-65.918,-26.367,17.578,0.000,0
1595390086.612,85.938,-62.988,-24.414,19.531,0.000,0
1595390086.616,52.246,-62.012,-22.949,25.391,0.000,0
1595390086.619,-31.250,-57.617,-24.902,33.203,0.000,0
1595390086.623,-19.531,-55.176,-29.297,29.297,0.000,0
1595390086.627,66.406,-58.105,-31.250,15.625,0.000,0
1595390086.631,62.988,-59.082,-30.762,11.719,0.000,0
1595390086.635,-39.062,-58.594,-33.203,9.277,0.000,0
1595390086.639,-56.152,-59.082,-33.691,14.160,0.000,0
1595390086.643,29.785,-57.617,-34.180,18.066,0.000,0
1595390086.647,58.105,-58.594,-31.738,13.672,0.000,0
1595390086.651,-19.043,-62.012,-26.855,7.812,0.000,0
1595390086.655,-69.336,-60.547,-27.344,4.883,0.000,0
1595390086.659,-9.766,-59.570,-30.273,-2.441,0.000,0
1595390086.662,61.035,-62.500,-32.715,-5.371,0.000,0
1595390086.666,12.695,-64.453,-30.273,0.977,0.000,0
1595390086.670,-52.246,-62.988,-26.855,13.184,0.000,0
1595390086.674,-5.859,-52.246,-27.344,17.090,0.000,0
1595390086.678,67.383,-49.805,-33.203,-0.488,0.000,0
1595390086.682,40.527,-52.734,-32.227,-3.418,0.000,0
1595390086.686,-60.547,-50.293,-35.156,-9.277,0.000,0
1595390086.690,-62.988,-55.664,-40.039,-16.113,0.000,0
1595390086.694,29.785,-59.570,-37.109,-14.160,0.000,0
1595390086.698,44.922,-60.547,-38.086,-7.812,0.000,0
1595390086.701,-39.062,-60.547,-41.016,-1.953,0.000,0
1595390086.705,-66.406,-57.617,-37.109,0.000,0.000,0
1595390086.709,22.949,-52.734,-28.809,7.812,0.000,0
1595390086.713,73.730,-51.758,-33.203,4.395,0.000,0
1595390086.717,-6.348,-54.688,-39.551,1.465,0.000,0
1595390086.721,-64.453,-50.781,-39.062,5.859,0.000,0
1595390086.725,2.930,-44.434,-32.715,5.859,0.000,0
1595390086.729,80.078,-41.016,-26.855,11.230,0.000,0
1595390086.733,29.785,-44.922,-31.738,11.719,0.000,0
1595390086.737,-60.547,-48.828,-31.738,12.695,0.000,0
1595390086.741,-30.762,-46.875,-26.855,9.277,0.000,0
1595390086.744,57.617,-50.293,-32.715,-2.441,0.000,0
1595390086.748,35.156,-54.688,-39.062,-2.930,0.000,0
1595390086.752,-63.477,-53.223,-39.551,-3.418,0.000,0
1595390086.756,-67.871,-51.758,-42.969,-10.742,0.000,0
1595390086.760,30.762,-49.316,-37.598,-3.906,0.000,0
1595390086.764,60.059,-48.828,-32.715,5.371,0.000,0
1595390086.768,-26.367,-53.223,-38.086,0.488,0.000,0
1595390086.772,-69.824,-57.129,-36.621,-1.953,0.000,0
1595390086.776,6.348,-56.641,-28.809,-2.930,0.000,0
1595390086.780,62.012,-55.176,-29.785,1.465,0.000,2
1595390086.784,-3.418,-53.223,-28.809,5.859,0.000,0
1595390086.787,-74.219,-51.270,-25.879,0.000,0.000,0
1595390086.791,-22.461,-48.828,-26.367,-0.977,0.000,0
1595390086.795,54.688,-50.781,-29.785,-0.977,0.000,0
1595390086.799,12.207,-51.758,-33.691,-3.906,0.000,0
1595390086.803,-68.848,-52.734,-35.156,0.000,0.000,0
1595390086.807,-53.711,-54.199,-40.039,-5.371,0.000,0
1595390086.811,28.320,-59.082,-36.621,-15.137,0.000,0
1595390086.815,27.832,-60.059,-33.691,-17.578,0.000,0
1595390086.819,-64.941,-60.059,-34.668,-12.207,0.000,0
1595390086.823,-70.801,-68.848,-31.250,-10.254,0.000,0
1595390086.826,18.066,-64.941,-27.344,-13.184,0.000,0
1595390086.830,46.387,-50.781,-26.367,-11.719,0.000,0
1595390086.834,-38.574,-50.781,-31.250,-11.230,0.000,0
1595390086.838,-90.332,-54.199,-39.062,-14.160,0.000,0
1595390086.842,-14.160,-55.176,-41.504,-19.043,0.000,0
1595390086.846,47.363,-61.035,-40.527,-22.461,0.000,0
1595390086.850,-11.230,-59.082,-38.086,-15.137,0.000,0
1595390086.854,-78.125,-55.664,-38.086,-12.207,0.000,0
1595390086.858,-40.527,-56.152,-38.086,-21.973,0.000,0
1595390086.862,36.621,-56.641,-36.133,-19.531,0.000,0
1595390086.866,12.695,-51.758,-36.133,-10.254,0.000,0
1595390086.869,-76.172,-52.246,-42.480,-15.137,0.000,0
1595390086.873,-62.012,-56.641,-43.945,-23.926,0.000,0
1595390086.877,36.621,-53.223,-38.574,-20.020,0.000,0
1595390086.881,39.062,-51.758,-42.480,-10.254,0.000,0
1595390086.885,-54.688,-55.664,-44.434,-4.883,0.000,0
1595390086.889,-76.172,-59.082,-42.480,-15.625,0.000,0
1595390086.893,11.719,-56.641,-38.574,-19.043,0.000,0
1595390086.897,45.898,-52.246,-38.086,-9.277,0.000,0
1595390086.901,-40.039,-50.293,-40.039,-9.277,0.000,0
1595390086.905,-94.727,-47.363,-35.645,-9.277,0.000,0
1595390086.909,-27.344,-48.340,-32.227,-10.254,0.000,0
1595390086.912,37.598,-46.875,-35.156,-16.113,0.000,0
1595390086.916,-13.672,-46.875,-36.621,-13.184,0.000,0
1595390086.920,-92.773,-51.758,-38.574,-9.766,0.000,0
1595390086.924,-49.805,-48.340,-35.645,-11.230,0.000,0
1595390086.928,42.969,-46.387,-28.809,-8.301,0.000,0
1595390086.932,15.625,-51.758,-31.738,-8.301,0.000,0
1595390086.936,-75.684,-52.246,-30.762,-10.742,0.000,0
1595390086.940,-66.895,-49.316,-28.320,-10.742,0.000,0
1595390086.944,18.066,-50.293,-28.320,-17.090,0.000,0
1595390086.948,30.273,-53.223,-34.180,-26.855,0.000,0
1595390086.951,-59.082,-56.152,-40.039,-23.438,0.000,0
1595390086.955,-92.285,-54.688,-40.039,-17.578,0.000,0
1595390086.959,-4.883,-49.316,-35.156,-18.066,0.000,0
1595390086.963,44.434,-45.898,-29.785,-16.602,0.000,0
1595390086.967,-19.043,-43.945,-33.691,-18.066,0.000,0
1595390086.971,-82.031,-45.898,-34.180,-19.043,0.000,0
1595390086.975,-37.109,-52.734,-32.715,-12.207,0.000,0
1595390086.979,34.180,-49.805,-31.250,-20.996,0.000,0
1595390086.983,-2.930,-51.758,-31.738,-30.762,0.000,0
1595390086.987,-79.590,-54.199,-36.621,-21.973,0.000,0
1595390086.991,-55.664,-49.316,-39.551,-24.414,0.000,0
1595390086.994,34.180,-50.293,-40.527,-30.762,0.000,0
1595390086.998,28.320,-51.758,-39.062,-21.484,0.000,0
1595390087.002,-59.570,-51.758,-35.645,-18.555,0.000,0
1595390087.006,-63.477,-48.340,-32.227,-21.973,0.000,0
1595390087.010,28.320,-45.410,-30.762,-18.066,0.000,0
1595390087.014,42.480,-45.410,-30.273,-11.719,0.000,0
1595390087.018,-48.340,-43.457,-27.344,-4.395,0.000,0
1595390087.022,-85.938,-52.246,-29.297,-5.859,0.000,0
1595390087.026,-5.371,-56.152,-33.691,-13.672,0.000,0
1595390087.030,58.594,-52.734,-37.598,-12.207,0.000,0
1595390087.034,-7.324,-54.688,-47.363,-7.324,0.000,0
1595390087.037,-81.055,-53.223,-48.340,-5.371,0.000,0
1595390087.041,-20.508,-49.805,-40.527,-12.207,0.000,0
1595390087.045,49.316,-49.316,-37.109,-16.602,0.000,0
1595390087.049,4.883,-51.758,-35.645,-4.883,0.000,0
1595390087.053,-71.777,-50.781,-41.504,-2.930,0.000,0
1595390087.057,-47.363,-52.734,-38.574,-3.906,0.000,0
1595390087.061,46.387,-56.641,-33.691,-4.883,0.000,0
1595390087.065,39.062,-55.176,-41.016,-3.418,0.000,0
1595390087.069,-63.477,-53.223,-45.410,-7.812,0.000,0
1595390087.073,-80.078,-53.711,-50.293,-21.973,0.000,0
1595390087.076,13.672,-51.270,-43.457,-19.043,0.000,0
1595390087.080,45.898,-46.875,-41.504,-13.184,0.000,0
1595390087.084,-33.691,-49.805,-50.781,-11.719,0.000,0
1595390087.088,-77.637,-57.129,-49.805,-12.207,0.000,0
1595390087.092,-15.137,-56.152,-43.945,-7.812,0.000,0
1595390087.096,47.363,-49.316,-40.039,-16.113,0.000,0
1595390087.100,-9.766,-49.316,-45.410,-11.719,0.000,0
1595390087.104,-96.191,-54.199,-49.316,-6.348,0.000,0
1595390087.108,-42.480,-50.781,-44.434,-13.184,0.000,0
1595390087.112,43.945,-43.457,-40.527,-9.766,0.000,0
1595390087.116,4.883,-41.504,-36.621,-5.371,0.000,0
1595390087.119,-80.078,-41.992,-41.504,-3.906,0.000,0
1595390087.123,-64.941,-42.480,-44.434,-15.625,0.000,0
1595390087.127,32.227,-46.875,-43.945,-23.926,0.000,0
1595390087.131,38.574,-45.898,-47.363,-19.043,0.000,0
1595390087.135,-59.570,-44.434,-44.922,-12.695,0.000,0
1595390087.139,-80.566,-49.316,-42.480,-18.555,0.000,0
1595390087.143,1.953,-50.781,-40.039,-26.855,0.000,0
1595390087.147,39.062,-48.340,-35.156,-23.438,0.000,0
1595390087.151,-35.645,-50.293,-42.969,-20.996,0.000,0
1595390087.155,-89.355,-52.246,-50.781,-20.020,0.000,0
1595390087.159,-28.809,-51.270,-50.293,-23.926,0.000,0
1595390087.162,38.086,-52.246,-51.270,-25.879,0.000,0
1595390087.166,-4.883,-48.340,-49.805,-21.484,0.000,0
1595390087.170,-80.078,-47.363,-43.457,-17.090,0.000,0
1595390087.174,-47.363,-51.270,-41.016,-22.461,0.000,0
1595390087.178,33.203,-54.199,-42.969,-26.855,0.000,0
1595390087.182,11.230,-56.641,-44.434,-19.043,0.000,0
1595390087.186,-76.660,-53.711,-47.363,-12.695,0.000,0
1595390087.190,-74.707,-52.246,-44.922,-18.066,0.000,0
1595390087.194,20.996,-53.223,-43.457,-26.367,0.000,0
1595390087.198,36.133,-58.594,-54.688,-18.555,0.000,0
1595390087.201,-54.688,-57.129,-58.105,-15.625,0.000,0
1595390087.205,-83.008,-54.199,-52.734,-28.809,0.000,0
1595390087.209,-0.977,-53.711,-49.805,-23.438,0.000,0
1595390087.213,43.457,-45.410,-44.434,-12.695,0.000,0
1595390087.217,-34.180,-47.852,-46.387,-18.555,0.000,0
1595390087.221,-97.656,-57.617,-56.641,-22.461,0.000,0
1595390087.225,-35.156,-57.617,-59.570,-23.438,0.000,0
1595390087.229,31.738,-52.246,-52.246,-30.762,0.000,0
1595390087.233,-7.812,-49.316,-50.781,-20.020,0.000,0
1595390087.237,-81.543,-48.340,-53.711,-13.672,0.000,0
1595390087.241,-56.641,-47.852,-55.176,-26.855,0.000,0
1595390087.244,37.598,-49.316,-58.594,-31.250,0.000,0
1595390087.248,24.902,-51.758,-60.059,-26.367,0.000,0
1595390087.252,-74.219,-52.734,-58.105,-25.391,0.000,0
1595390087.256,-70.801,-45.898,-51.758,-26.855,0.000,0
1595390087.260,26.855,-43.945,-48.828,-31.250,0.000,0
1595390087.264,37.109,-44.922,-49.316,-26.855,0.000,0
1595390087.268,-49.805,-49.316,-47.363,-16.113,0.000,0
1595390087.272,-89.355,-56.641,-54.199,-20.996,0.000,0
1595390087.276,-9.766,-55.176,-53.223,-27.344,0.000,0
1595390087.280,57.129,-51.758,-46.875,-24.902,0.000,0
1595390087.284,-11.230,-54.688,-52.734,-20.020,0.000,0
1595390087.287,-85.938,-57.129,-57.617,-17.090,0.000,0
1595390087.291,-34.180,-53.711,-53.711,-13.672,0.000,0
1595390087.295,47.852,-52.246,-48.340,-15.137,0.000,0
1595390087.299,11.719,-52.734,-49.316,-12.695,0.000,0
1595390087.303,-70.312,-57.129,-53.711,-3.906,0.000,0
1595390087.307,-43.457,-54.199,-48.828,-3.906,0.000,0
1595390087.311,40.527,-47.852,-49.805,-16.602,0.000,0
1595390087.315,31.250,-46.875,-55.664,-15.625,0.000,0
1595390087.319,-62.012,-49.316,-50.781,-7.812,0.000,0
1595390087.323,-68.848,-45.898,-50.781,-18.066,0.000,0
1595390087.326,26.367,-42.480,-47.852,-26.855,0.000,0
1595390087.330,46.387,-44.434,-41.992,-19.043,0.000,0
1595390087.334,-37.598,-44.434,-40.039,-8.301,0.000,0
1595390087.338,-82.520,-51.270,-38.574,-12.207,0.000,0
1595390087.342,-12.695,-55.176,-39.062,-19.531,0.000,0
1595390087.346,47.852,-49.316,-38.574,-15.137,0.000,0
1595390087.350,-11.230,-45.410,-38.086,-7.812,0.000,0
1595390087.354,-82.031,-48.340,-39.062,-15.137,0.000,0
1595390087.358,-33.203,-48.828,-38.086,-28.809,0.000,0
1595390087.362,49.316,-48.828,-37.598,-22.461,0.000,0
1595390087.366,15.137,-47.852,-38.086,-16.113,0.000,0
1595390087.369,-77.637,-51.758,-40.039,-18.555,0.000,0
1595390087.373,-65.918,-54.688,-41.016,-15.137,0.000,0
1595390087.377,29.785,-55.176,-41.016,-24.414,0.000,0
1595390087.381,32.227,-57.617,-45.410,-30.273,0.000,0
1595390087.385,-63.477,-56.152,-40.527,-16.602,0.000,0
1595390087.389,-79.590,-55.176,-34.668,-13.672,0.000,0
1595390087.393,9.766,-54.199,-37.109,-20.020,0.000,0
1595390087.397,42.969,-53.711,-35.156,-12.695,0.000,0
1595390087.401,-32.715,-52.246,-37.109,-10.254,0.000,0
1595390087.405,-82.520,-47.363,-38.574,-11.230,0.000,0
1595390087.409,-21.973,-42.480,-35.645,-13.184,0.000,0
1595390087.412,42.969,-43.945,-36.621,-11.230,0.000,0
1595390087.416,-6.348,-47.363,-40.039,-9.277,0.000,0
1595390087.420,-83.496,-48.340,-42.480,-13.672,0.000,0
1595390087.424,-47.363,-51.270,-43.457,-11.719,0.000,0
1595390087.428,41.992,-52.246,-46.387,-10.254,0.000,0
1595390087.432,15.625,-54.688,-48.828,-20.020,0.000,0
1595390087.436,-80.078,-52.734,-45.898,-25.879,0.000,0
1595390087.440,-69.824,-51.270,-42.480,-18.066,0.000,0
1595390087.444,25.391,-54.199,-40.039,-19.043,0.000,0
1595390087.448,41.016,-57.129,-38.086,-20.996,0.000,0
1595390087.451,-51.758,-62.500,-36.621,-11.230,0.000,0
1595390087.455,-85.938,-63.965,-37.598,-15.137,0.000,0
