timestamps,TP9,AF7,AF8,TP10,Right AUX,Marker0
1595393086.719,51.270,-35.156,-2.930,-7.324,0.000,0
1595393086.723,-83.984,-35.645,-10.742,-7.812,0.000,0
1595393086.726,-117.676,-35.156,-11.230,-17.578,0.000,0
1595393086.730,4.395,-34.668,2.441,-25.391,0.000,0
1595393086.734,65.918,-30.762,-0.977,-20.996,0.000,0
1595393086.738,-42.969,-34.180,-14.160,-8.789,0.000,0
1595393086.742,-117.676,-30.762,-10.742,-5.371,0.000,0
1595393086.746,-11.230,-27.832,2.441,-11.719,0.000,0
1595393086.750,90.332,-31.738,-5.371,-11.230,0.000,0
1595393086.754,11.230,-31.738,-6.348,-1.953,0.000,0
1595393086.758,-102.051,-30.273,-2.930,-3.418,0.000,0
1595393086.762,-41.016,-33.691,-8.789,-4.883,0.000,0
1595393086.766,75.684,-34.180,-7.812,-0.977,0.000,0
1595393086.769,29.785,-36.133,-13.672,-8.301,0.000,0
1595393086.773,-83.496,-31.738,-7.324,0.977,0.000,0
1595393086.777,-60.547,-27.344,-10.742,9.766,0.000,0
1595393086.781,50.293,-29.785,-21.973,-13.672,0.000,0
1595393086.785,56.152,-30.273,-30.762,-28.320,0.000,0
1595393086.789,-62.012,-32.715,-38.574,-25.879,0.000,0
1595393086.793,-106.445,-29.297,-41.016,-25.391,0.000,0
1595393086.797,9.277,-26.367,-39.062,-30.273,0.000,0
1595393086.801,70.801,-21.973,-41.992,-32.227,0.000,0
1595393086.805,-41.016,-20.508,-38.086,-28.809,0.000,0
1595393086.808,-132.324,-23.438,-47.852,-15.625,0.000,0
1595393086.812,-44.434,-20.020,-49.805,-23.438,0.000,0
1595393086.816,57.129,-20.020,-40.527,-46.387,0.000,0
1595393086.820,-9.766,-19.043,-37.598,-33.691,0.000,0
1595393086.824,-123.047,-19.043,-45.410,-26.367,0.000,0
1595393086.828,-65.918,-19.531,-46.387,-30.762,0.000,0
1595393086.832,70.312,-18.555,-40.527,-25.391,0.000,0
1595393086.836,41.992,-21.484,-41.992,-20.020,0.000,0
1595393086.840,-85.938,-22.461,-49.316,-17.090,0.000,0
1595393086.844,-87.891,-27.344,-64.941,-18.555,0.000,0
1595393086.848,41.992,-25.391,-45.898,-23.438,0.000,0
1595393086.851,78.125,-21.484,-41.504,-26.367,0.000,0
1595393086.855,-51.758,-29.785,-54.688,-25.879,0.000,0
1595393086.859,-115.234,-34.668,-57.617,-22.461,0.000,0
1595393086.863,2.930,-32.715,-44.922,-22.949,0.000,0
1595393086.867,83.008,-32.715,-41.504,-23.438,0.000,0
1595393086.871,-20.020,-32.715,-49.805,-20.020,0.000,0
1595393086.875,-116.699,-33.203,-53.711,-20.508,0.000,0
1595393086.879,-34.180,-35.156,-40.527,-19.531,0.000,0
1595393086.883,88.379,-30.762,-33.203,-5.371,0.000,0
1595393086.887,35.645,-29.785,-41.504,6.348,0.000,0
1595393086.891,-90.332,-30.762,-43.457,6.348,0.000,0
1595393086.894,-58.105,-32.227,-32.715,1.465,0.000,0
1595393086.898,66.406,-35.156,-26.855,-1.953,0.000,0
1595393086.902,56.152,-32.227,-29.297,-4.883,0.000,0
1595393086.906,-65.918,-27.832,-30.273,-4.883,0.000,0
1595393086.910,-71.777,-28.320,-34.180,-2.930,0.000,0
1595393086.914,52.246,-29.297,-31.738,-1.953,0.000,0
1595393086.918,93.262,-29.785,-43.457,-1.465,0.000,0
1595393086.922,-23.438,-32.227,-48.828,-7.812,0.000,0
1595393086.926,-87.891,-33.691,-54.688,-8.301,0.000,0
1595393086.930,20.508,-31.738,-51.270,-6.836,0.000,0
1595393086.933,102.539,-34.668,-58.105,-5.371,0.000,0
1595393086.937,3.906,-33.203,-51.270,-0.488,0.000,0
1595393086.941,-100.586,-32.227,-45.410,2.441,0.000,0
1595393086.945,-29.297,-34.668,-51.270,1.953,0.000,0
1595393086.949,95.703,-37.109,-46.387,-1.465,0.000,0
1595393086.953,55.176,-37.598,-42.969,0.977,0.000,0
1595393086.957,-77.637,-32.227,-50.781,-9.766,0.000,0
1595393086.961,-60.059,-26.855,-51.758,-16.113,0.000,0
1595393086.965,70.801,-25.391,-42.969,-20.996,0.000,0
1595393086.969,66.406,-26.855,-48.828,-31.250,0.000,0
1595393086.973,-68.848,-33.203,-62.500,-30.762,0.000,0
1595393086.976,-88.867,-31.250,-67.871,-29.785,0.000,0
1595393086.980,34.668,-32.227,-46.387,-31.250,0.000,0
1595393086.984,82.031,-34.180,-35.645,-20.020,0.000,0
1595393086.988,-34.180,-33.203,-40.527,-11.230,0.000,0
1595393086.992,-102.539,-32.227,-54.688,-10.742,0.000,0
1595393086.996,9.277,-29.297,-40.527,-14.160,0.000,0
1595393087.000,97.168,-27.832,-25.879,-18.555,0.000,0
1595393087.004,5.859,-33.691,-32.715,-14.648,0.000,0
1595393087.008,-100.586,-40.039,-41.992,-4.883,0.000,0
1595393087.012,-36.621,-38.574,-29.297,-4.395,0.000,0
1595393087.016,83.984,-34.180,-14.160,-12.207,0.000,0
1595393087.019,49.805,-34.180,-25.391,-7.812,0.000,0
1595393087.023,-77.148,-37.109,-38.086,3.906,0.000,0
1595393087.027,-66.895,-34.668,-24.902,-7.812,0.000,0
1595393087.031,60.547,-33.691,-14.648,-16.602,0.000,0
1595393087.035,74.707,-35.645,-20.020,-6.348,0.000,0
1595393087.039,-50.293,-38.086,-17.578,6.836,0.000,0
1595393087.043,-83.984,-42.480,-17.090,-1.465,0.000,0
1595393087.047,41.992,-40.039,-4.883,-14.648,0.000,0
1595393087.051,97.656,-37.598,-5.371,-10.742,0.000,0
1595393087.055,-14.160,-34.668,-5.859,-4.883,0.000,0
1595393087.058,-96.680,-33.203,-8.789,-8.301,0.000,0
1595393087.062,-0.488,-32.227,-9.277,-6.836,0.000,0
1595393087.066,100.586,-32.715,-8.301,-8.789,0.000,0
1595393087.070,18.555,-36.133,-11.719,-12.207,0.000,0
1595393087.074,-97.656,-32.227,-8.789,-12.695,0.000,0
1595393087.078,-46.875,-29.297,-5.371,-14.648,0.000,0
1595393087.082,79.590,-26.367,-5.371,-14.648,0.000,0
1595393087.086,52.246,-25.391,-2.441,-9.766,0.000,0
1595393087.090,-80.566,-26.855,-5.859,-4.883,0.000,0
1595393087.094,-80.078,-29.785,-16.113,-17.090,0.000,0
1595393087.098,48.340,-33.691,-18.066,-24.414,0.000,0
1595393087.101,72.266,-34.180,-17.090,-16.113,0.000,0
1595393087.105,-45.410,-34.180,-11.230,-8.789,0.000,0
1595393087.109,-93.262,-32.227,-16.602,-7.324,0.000,0
1595393087.113,17.578,-35.645,-20.020,-3.906,0.000,0
1595393087.117,87.402,-33.203,-9.277,-5.859,0.000,0
1595393087.121,-15.625,-30.762,-4.395,-9.277,0.000,0
1595393087.125,-110.840,-35.645,-20.020,-9.766,0.000,0
1595393087.129,-30.273,-33.203,-17.090,-4.395,0.000,0
1595393087.133,83.496,-27.344,-1.465,-2.441,0.000,0
1595393087.137,16.602,-30.762,-9.277,-14.648,0.000,0
1595393087.141,-108.398,-34.180,-22.461,-13.672,0.000,0
1595393087.144,-74.707,-34.180,-20.508,-17.578,0.000,0
1595393087.148,58.594,-30.762,0.000,-14.160,0.000,0
1595393087.152,54.688,-29.297,4.883,-0.977,0.000,0
1595393087.156,-70.801,-30.762,-6.836,2.441,0.000,0
1595393087.160,-88.379,-34.180,-17.090,-1.465,0.000,0
1595393087.164,34.668,-36.133,-5.859,-0.488,0.000,0
1595393087.168,78.613,-33.203,-1.465,7.324,0.000,0
1595393087.172,-46.387,-37.598,-13.184,15.625,0.000,0
1595393087.176,-112.305,-38.574,-13.184,17.578,0.000,0
1595393087.180,1.465,-34.180,1.953,1.953,0.000,0
1595393087.183,88.867,-32.715,0.488,4.395,0.000,0
1595393087.187,-12.695,-32.227,-6.348,17.578,0.000,0
1595393087.191,-118.164,-33.203,-6.836,9.277,0.000,0
1595393087.195,-35.156,-32.227,4.395,-2.441,0.000,0
1595393087.199,79.102,-33.691,5.371,-7.812,0.000,0
1595393087.203,16.113,-42.480,-12.207,-14.648,0.000,0
1595393087.207,-108.887,-42.480,-26.855,-12.207,0.000,0
1595393087.211,-65.430,-37.109,-23.926,-1.953,0.000,0
1595393087.215,64.941,-38.574,-13.184,-6.348,0.000,0
1595393087.219,55.176,-41.992,-24.902,-18.066,0.000,0
1595393087.223,-64.941,-40.039,-20.508,-17.578,0.000,0
1595393087.226,-85.938,-37.598,-16.113,-12.695,0.000,0
1595393087.230,41.992,-35.645,-18.066,-5.371,0.000,0
1595393087.234,94.727,-28.809,-17.090,-3.906,0.000,0
1595393087.238,-27.832,-25.879,-17.090,-7.324,0.000,0
1595393087.242,-97.168,-23.926,-26.855,-2.930,0.000,0
1595393087.246,5.859,-21.484,-22.461,-1.465,0.000,0
1595393087.250,88.867,-20.996,-19.043,-9.277,0.000,0
1595393087.254,-9.766,-25.391,-23.926,-12.207,0.000,0
1595393087.258,-120.605,-29.785,-29.785,-11.230,0.000,0
1595393087.262,-55.664,-33.203,-31.738,-12.695,0.000,0
1595393087.266,62.500,-31.738,-22.461,-17.578,0.000,0
1595393087.269,22.949,-27.832,-18.555,-23.926,0.000,0
1595393087.273,-100.586,-30.762,-22.461,-20.020,0.000,0
1595393087.277,-80.566,-31.738,-29.785,-18.066,0.000,0
1595393087.281,50.781,-30.762,-25.391,-21.973,0.000,0
1595393087.285,59.570,-29.297,-26.367,-17.090,0.000,0
1595393087.289,-69.824,-26.367,-31.250,-14.160,0.000,0
1595393087.293,-101.074,-24.902,-40.527,-11.719,0.000,0
1595393087.297,27.832,-24.414,-31.738,-1.465,0.000,0
1595393087.301,85.449,-31.250,-27.832,-4.395,0.000,0
1595393087.305,-24.902,-33.691,-36.133,2.930,0.000,0
1595393087.308,-103.027,-32.227,-35.645,15.137,0.000,0
1595393087.312,-12.207,-40.527,-22.461,-7.324,0.000,0
1595393087.316,87.402,-44.434,-18.066,-17.578,0.000,0
1595393087.320,1.465,-43.457,-27.832,-8.789,0.000,0
1595393087.324,-112.793,-41.992,-32.227,-2.930,0.000,0
1595393087.328,-55.176,-37.598,-25.391,-3.418,0.000,0
1595393087.332,71.777,-34.180,-19.531,-7.324,0.000,0
1595393087.336,41.016,-33.203,-27.832,3.418,0.000,0
1595393087.340,-99.609,-34.180,-33.203,12.695,0.000,0
1595393087.344,-91.797,-29.297,-20.508,5.859,0.000,0
1595393087.348,34.180,-26.367,-13.184,-3.906,0.000,0
1595393087.351,45.898,-29.785,-25.391,-14.648,0.000,0
1595393087.355,-80.566,-29.297,-33.691,-4.395,0.000,0
1595393087.359,-124.023,-26.855,-22.461,4.883,0.000,0
1595393087.363,-4.883,-28.809,-10.254,-6.836,0.000,0
1595393087.367,56.152,-30.273,-20.996,-8.789,0.000,0
1595393087.371,-56.152,-32.715,-22.949,-4.883,0.000,0
1595393087.375,-138.184,-35.645,-22.461,-10.254,0.000,0
1595393087.379,-54.199,-31.738,-20.508,-15.625,0.000,0
1595393087.383,48.828,-30.273,-13.672,-7.324,0.000,0
1595393087.387,-15.137,-29.785,-9.277,-4.395,0.000,0
1595393087.391,-134.766,-28.809,-18.555,-12.695,0.000,0
1595393087.394,-88.379,-33.691,-24.414,-16.602,0.000,0
1595393087.398,49.316,-36.133,-12.695,-14.160,0.000,0
1595393087.402,40.527,-32.715,-13.672,-6.348,0.000,0
1595393087.406,-93.750,-35.645,-18.066,0.000,0.000,0
1595393087.410,-93.262,-39.551,-18.555,0.000,0.000,2
1595393087.414,50.781,-41.504,-14.648,5.859,0.000,0
1595393087.418,87.891,-38.086,-4.883,-1.953,0.000,0
1595393087.422,-39.551,-38.086,-10.742,-6.348,0.000,0
1595393087.426,-98.633,-40.527,-33.203,-2.441,0.000,0
1595393087.430,32.227,-36.133,-25.391,1.465,0.000,0
1595393087.433,125.000,-35.156,-12.695,8.301,0.000,0
1595393087.437,12.207,-42.480,-17.090,-5.371,0.000,0
1595393087.441,-96.191,-44.922,-23.926,-5.859,0.000,0
1595393087.445,-18.555,-44.922,-19.043,-5.859,0.000,0
1595393087.449,103.516,-43.457,-9.766,0.977,0.000,0
1595393087.453,46.387,-43.945,-11.719,11.230,0.000,0
1595393087.457,-84.961,-45.410,-23.438,13.672,0.000,0
1595393087.461,-51.758,-41.016,-19.043,18.555,0.000,0
1595393087.465,78.125,-40.527,-4.883,11.230,0.000,0
1595393087.469,59.570,-46.387,-18.066,0.488,0.000,0
1595393087.473,-65.918,-50.293,-26.855,3.906,0.000,0
1595393087.476,-82.520,-50.781,-25.391,5.859,0.000,0
1595393087.480,41.992,-42.969,-9.766,2.930,0.000,0
1595393087.484,88.867,-36.133,-6.348,10.254,0.000,0
1595393087.488,-35.156,-40.527,-15.137,17.578,0.000,0
1595393087.492,-97.168,-36.621,-13.672,20.508,0.000,0
1595393087.496,17.578,-29.297,2.441,15.625,0.000,0
1595393087.500,104.980,-28.320,2.441,15.137,0.000,0
1595393087.504,9.766,-35.156,-13.184,12.695,0.000,0
1595393087.508,-103.027,-40.039,-16.113,-2.441,0.000,0
1595393087.512,-35.156,-35.156,-14.648,-7.812,0.000,0
1595393087.516,81.055,-36.621,-15.625,-4.395,0.000,0
1595393087.519,29.785,-40.039,-17.578,-2.930,0.000,0
1595393087.523,-95.215,-41.992,-19.531,2.441,0.000,0
1595393087.527,-76.172,-47.363,-23.438,-4.395,0.000,0
1595393087.531,55.664,-44.922,-16.602,-11.230,0.000,0
1595393087.535,61.523,-39.551,-10.254,-9.766,0.000,0
1595393087.539,-75.195,-40.039,-18.066,-8.789,0.000,0
1595393087.543,-101.074,-38.574,-30.273,-8.789,0.000,0
1595393087.547,30.273,-37.109,-30.273,-6.836,0.000,0
1595393087.551,75.195,-38.574,-24.902,-12.207,0.000,0
1595393087.555,-38.086,-38.086,-21.973,-20.996,0.000,0
1595393087.558,-105.469,-38.086,-27.344,-14.160,0.000,0
1595393087.562,-0.488,-43.457,-27.344,-8.789,0.000,0
1595393087.566,89.355,-42.969,-24.414,-12.207,0.000,0
1595393087.570,6.836,-40.527,-17.090,-11.230,0.000,0
1595393087.574,-98.145,-41.016,-21.973,-4.883,0.000,0
1595393087.578,-31.738,-34.668,-19.043,-5.859,0.000,0
1595393087.582,88.379,-31.738,-11.719,-12.695,0.000,0
1595393087.586,49.316,-34.180,-18.066,-11.230,0.000,0
1595393087.590,-80.566,-44.434,-24.902,-10.254,0.000,0
1595393087.594,-74.219,-42.969,-18.555,-9.277,0.000,0
1595393087.598,53.711,-37.109,-8.301,-14.160,0.000,0
1595393087.601,69.336,-40.039,-11.230,-25.391,0.000,0
1595393087.605,-57.617,-40.039,-21.484,-21.973,0.000,0
1595393087.609,-91.797,-36.133,-34.180,-7.324,0.000,0
1595393087.613,38.574,-33.691,-16.602,-6.348,0.000,0
1595393087.617,106.934,-31.738,-11.230,-3.906,0.000,0
1595393087.621,-8.301,-37.598,-20.020,-1.465,0.000,0
1595393087.625,-97.656,-36.133,-24.902,-2.441,0.000,0
1595393087.629,1.953,-31.738,-22.461,-1.465,0.000,0
1595393087.633,105.469,-33.203,-24.902,-2.441,0.000,0
1595393087.637,24.414,-34.668,-35.156,-7.812,0.000,0
1595393087.641,-91.797,-36.621,-38.086,-11.230,0.000,0
1595393087.644,-41.504,-32.715,-33.203,-3.418,0.000,0
1595393087.648,93.262,-27.832,-29.785,1.953,0.000,0
1595393087.652,57.617,-29.297,-38.086,-1.465,0.000,0
1595393087.656,-78.613,-27.344,-41.504,-1.465,0.000,0
1595393087.660,-68.848,-23.438,-34.668,-4.395,0.000,0
1595393087.664,58.105,-27.832,-25.879,-9.766,0.000,0
1595393087.668,85.449,-26.367,-36.133,-4.395,0.000,0
1595393087.672,-36.621,-19.043,-35.156,2.930,0.000,0
1595393087.676,-104.004,-22.949,-40.039,-10.742,0.000,0
1595393087.680,0.488,-27.832,-35.156,-19.531,0.000,0
1595393087.683,79.590,-27.344,-26.367,-8.789,0.000,0
1595393087.687,-20.020,-27.832,-22.461,2.930,0.000,0
1595393087.691,-108.398,-25.879,-20.508,16.113,0.000,0
1595393087.695,-22.461,-29.785,-16.113,11.230,0.000,0
1595393087.699,80.078,-38.086,-21.484,6.836,0.000,0
1595393087.703,13.184,-37.598,-26.367,10.254,0.000,0
1595393087.707,-108.398,-35.645,-25.391,6.348,0.000,0
1595393087.711,-66.895,-32.227,-31.738,7.812,0.000,0
1595393087.715,56.641,-36.133,-27.832,7.812,0.000,0
1595393087.719,41.016,-36.621,-12.695,5.371,0.000,0
1595393087.723,-89.355,-38.086,-19.531,-7.812,0.000,0
1595393087.726,-103.516,-47.852,-36.133,-15.625,0.000,0
1595393087.730,29.785,-42.969,-28.320,-5.859,0.000,0
1595393087.734,77.637,-34.180,-15.137,2.930,0.000,0
1595393087.738,-37.598,-36.621,-18.066,0.000,0.000,0
1595393087.742,-92.285,-34.180,-33.203,9.766,0.000,0
1595393087.746,30.762,-24.902,-27.344,13.672,0.000,0
1595393087.750,109.375,-29.785,-30.762,-0.977,0.000,0
1595393087.754,2.930,-37.598,-42.969,1.953,0.000,0
1595393087.758,-94.238,-38.086,-50.293,4.883,0.000,0
1595393087.762,-11.719,-33.203,-40.039,1.953,0.000,0
1595393087.766,105.469,-29.785,-24.902,9.277,0.000,0
1595393087.769,46.387,-35.156,-29.297,16.602,0.000,0
1595393087.773,-84.961,-41.992,-39.062,8.789,0.000,0
1595393087.777,-59.082,-33.691,-30.273,-3.418,0.000,0
1595393087.781,70.312,-29.297,-22.461,-7.324,0.000,0
1595393087.785,59.082,-33.203,-37.598,-2.441,0.000,0
1595393087.789,-76.660,-33.203,-46.387,-0.488,0.000,0
1595393087.793,-102.051,-34.180,-48.340,-10.254,0.000,0
1595393087.797,23.438,-35.645,-42.480,-19.043,0.000,0
1595393087.801,68.359,-33.203,-42.969,-18.066,0.000,0
1595393087.805,-45.898,-37.109,-40.527,-8.789,0.000,0
1595393087.808,-103.516,-38.574,-41.504,-12.207,0.000,0
1595393087.812,4.395,-37.109,-36.133,-19.043,0.000,0
1595393087.816,99.121,-33.691,-31.250,-9.277,0.000,0
1595393087.820,12.695,-32.715,-31.738,-6.348,0.000,0
1595393087.824,-98.633,-36.621,-33.691,-7.324,0.000,0
1595393087.828,-24.414,-34.180,-23.926,-2.930,0.000,0
1595393087.832,93.262,-35.156,-25.879,-0.977,0.000,0
1595393087.836,45.410,-33.203,-26.855,0.488,0.000,0
1595393087.840,-80.566,-34.668,-20.508,-13.672,0.000,0
1595393087.844,-61.523,-37.598,-25.391,-15.625,0.000,0
1595393087.848,72.266,-32.227,-25.879,-9.766,0.000,0
1595393087.851,83.984,-29.785,-27.344,-7.812,0.000,0
1595393087.855,-46.387,-36.621,-27.832,-6.348,0.000,0
1595393087.859,-95.215,-47.852,-34.668,-19.043,0.000,0
1595393087.863,23.438,-49.805,-31.250,-22.461,0.000,0
1595393087.867,85.938,-41.992,-19.043,-14.160,0.000,0
1595393087.871,-27.832,-42.480,-14.648,-10.254,0.000,0
1595393087.875,-108.887,-52.246,-29.297,-11.230,0.000,0
1595393087.879,-7.324,-53.711,-23.438,-8.301,0.000,0
1595393087.883,83.496,-51.758,-12.695,-11.230,0.000,0
1595393087.887,-7.812,-50.781,-12.695,-17.578,0.000,0
1595393087.891,-108.887,-51.270,-16.113,-4.395,0.000,0
1595393087.894,-46.387,-50.293,-14.648,-2.441,0.000,0
1595393087.898,82.031,-44.434,0.488,-9.277,0.000,0
1595393087.902,49.805,-47.363,-2.930,1.465,0.000,0
1595393087.906,-90.820,-53.223,-19.531,-1.465,0.000,0
1595393087.910,-83.496,-55.664,-25.879,-13.184,0.000,0
1595393087.914,48.828,-51.758,-13.184,-17.090,0.000,0
1595393087.918,69.824,-43.457,-9.277,-5.859,0.000,0
1595393087.922,-51.758,-41.992,-15.137,11.230,0.000,0
1595393087.926,-93.750,-42.969,-15.625,16.113,0.000,0
1595393087.930,29.297,-39.062,-5.371,11.719,0.000,0
1595393087.933,94.238,-40.039,-6.836,14.160,0.000,0
1595393087.937,-15.625,-45.410,-19.531,19.043,0.000,0
1595393087.941,-108.398,-49.316,-28.320,3.906,0.000,0
1595393087.945,-24.414,-49.805,-17.090,-4.883,0.000,0
1595393087.949,81.055,-49.316,-17.578,-4.395,0.000,0
1595393087.953,6.836,-52.246,-34.180,-5.859,0.000,0
1595393087.957,-110.840,-51.758,-34.180,-3.418,0.000,0
1595393087.961,-46.387,-44.434,-20.020,2.441,0.000,0
1595393087.965,88.379,-38.086,-8.301,-0.488,0.000,0
1595393087.969,68.359,-37.598,-13.672,3.906,0.000,0
1595393087.973,-51.758,-39.062,-14.648,15.137,0.000,0
1595393087.976,-58.594,-42.480,-17.090,5.371,0.000,0
1595393087.980,59.570,-43.457,-15.625,0.977,0.000,0
1595393087.984,81.543,-40.527,-14.648,12.207,0.000,0
1595393087.988,-45.898,-37.598,-8.789,11.719,0.000,0
1595393087.992,-94.238,-33.691,-5.859,4.395,0.000,0
1595393087.996,24.902,-30.762,-0.488,-4.395,0.000,0
1595393088.000,96.680,-32.715,-4.395,-7.812,0.000,0
1595393088.004,-7.812,-35.645,-14.648,-2.930,0.000,0
1595393088.008,-107.910,-36.621,-17.090,0.977,0.000,0
1595393088.012,-31.250,-41.016,-17.578,3.906,0.000,0
1595393088.016,80.566,-44.922,-20.020,-2.441,0.000,0
1595393088.019,23.438,-43.945,-9.277,-8.789,0.000,0
1595393088.023,-103.027,-41.016,-19.043,-3.418,0.000,0
1595393088.027,-68.848,-38.086,-32.715,-1.465,0.000,0
1595393088.031,63.477,-34.180,-17.090,-15.625,0.000,0
1595393088.035,58.594,-29.785,-12.695,-19.043,0.000,0
1595393088.039,-67.383,-31.738,-17.578,-5.371,0.000,0
1595393088.043,-83.984,-39.551,-33.691,-11.719,0.000,0
1595393088.047,38.574,-39.551,-28.320,-20.508,0.000,0
1595393088.051,86.426,-33.203,-21.484,-14.160,0.000,0
1595393088.055,-25.879,-31.250,-28.809,-13.672,0.000,0
1595393088.058,-90.332,-37.109,-39.551,-8.301,0.000,0
1595393088.062,16.113,-38.574,-20.996,-10.742,0.000,0
1595393088.066,100.098,-35.645,-12.695,-19.531,0.000,0
1595393088.070,8.301,-37.109,-20.020,-11.230,0.000,0
1595393088.074,-104.004,-42.969,-23.926,-1.953,0.000,0
1595393088.078,-32.715,-41.504,-13.184,3.418,0.000,0
1595393088.082,89.844,-33.691,-7.812,-2.441,0.000,0
1595393088.086,44.922,-30.762,-16.602,-7.812,0.000,0
1595393088.090,-85.938,-33.691,-28.320,-10.254,0.000,0
1595393088.094,-68.359,-35.645,-26.367,-14.160,0.000,0
1595393088.098,64.941,-36.621,-18.555,-12.695,0.000,0
1595393088.101,65.430,-37.598,-20.508,-4.883,0.000,0
1595393088.105,-61.035,-37.109,-13.672,-0.977,0.000,0
1595393088.109,-75.684,-36.133,-7.812,-0.488,0.000,0
1595393088.113,55.664,-33.691,0.488,-5.859,0.000,0
1595393088.117,100.586,-39.062,-11.719,-5.371,0.000,0
1595393088.121,-20.996,-39.062,-17.578,4.395,0.000,0
1595393088.125,-94.238,-31.738,-15.625,3.418,0.000,0
1595393088.129,4.883,-32.715,-22.949,-7.812,0.000,0
1595393088.133,96.680,-34.180,-23.438,-22.461,0.000,0
1595393088.137,12.695,-33.691,-25.879,-18.066,0.000,0
1595393088.141,-96.680,-35.156,-30.762,-7.812,0.000,0
1595393088.144,-41.504,-39.062,-30.762,-15.137,0.000,0
1595393088.148,80.566,-38.574,-25.879,-18.555,0.000,0
1595393088.152,43.945,-38.086,-16.113,-19.043,0.000,0
1595393088.156,-87.891,-36.133,-20.020,-15.625,0.000,0
1595393088.160,-76.172,-39.551,-37.109,-16.113,0.000,0
1595393088.164,47.363,-45.410,-27.344,-17.090,0.000,0
1595393088.168,62.988,-40.039,-17.090,0.977,0.000,0
1595393088.172,-50.781,-36.133,-20.996,9.277,0.000,0
1595393088.176,-91.797,-31.738,-36.133,-14.648,0.000,0
1595393088.180,24.414,-21.484,-39.551,-29.785,0.000,0
1595393088.183,95.215,-13.672,-26.855,-23.926,0.000,0
1595393088.187,-20.020,-16.113,-34.180,-27.832,0.000,0
1595393088.191,-104.492,-17.578,-57.617,-27.344,0.000,0
1595393088.195,-4.395,-14.648,-53.711,-32.715,0.000,0
1595393088.199,104.004,-12.207,-42.969,-36.133,0.000,0
1595393088.203,25.391,-13.184,-48.340,-26.367,0.000,0
1595393088.207,-93.262,-15.625,-61.523,-18.555,0.000,0
1595393088.211,-37.109,-18.555,-50.781,-17.090,0.000,0
1595393088.215,83.008,-20.508,-34.180,-9.277,0.000,0
1595393088.219,54.688,-29.785,-41.992,-10.742,0.000,0
1595393088.223,-71.289,-32.227,-47.852,-2.930,0.000,0
1595393088.226,-68.848,-26.367,-39.062,0.488,0.000,0
1595393088.230,55.176,-26.855,-24.902,-12.207,0.000,0
1595393088.234,75.684,-25.879,-23.926,-8.789,0.000,0
1595393088.238,-45.410,-26.855,-32.227,-3.906,0.000,0
1595393088.242,-100.586,-28.809,-39.062,-10.254,0.000,0
1595393088.246,16.602,-25.391,-24.414,-6.348,0.000,0
1595393088.250,102.051,-19.531,-26.855,-0.977,0.000,0
1595393088.254,3.906,-19.043,-33.203,1.465,0.000,0
1595393088.258,-104.492,-24.414,-35.645,-4.395,0.000,0
1595393088.262,-24.902,-21.973,-28.809,-5.859,0.000,0
1595393088.266,94.238,-20.508,-30.273,3.906,0.000,0
1595393088.269,33.203,-25.391,-42.480,9.766,0.000,0
1595393088.273,-90.820,-20.508,-44.434,7.324,0.000,0
1595393088.277,-43.457,-16.113,-43.945,-1.465,0.000,0
1595393088.281,95.215,-19.531,-41.016,-1.953,0.000,0
1595393088.285,76.172,-23.926,-49.316,-3.418,0.000,0
1595393088.289,-50.781,-23.926,-48.828,-7.324,0.000,0
1595393088.293,-53.711,-25.879,-47.363,-4.395,0.000,0
1595393088.297,67.871,-25.879,-50.781,4.395,0.000,0
1595393088.301,100.586,-20.508,-48.340,6.348,0.000,0
1595393088.305,-22.949,-19.531,-47.363,-7.324,0.000,0
1595393088.308,-79.590,-20.020,-60.547,-14.648,0.000,0
1595393088.312,30.762,-22.949,-63.965,-8.301,0.000,0
1595393088.316,108.887,-23.926,-62.012,-10.254,0.000,0
1595393088.320,15.625,-21.484,-57.617,-11.719,0.000,0
1595393088.324,-81.055,-23.438,-50.781,-2.930,0.000,0
1595393088.328,-4.883,-26.367,-32.227,5.371,0.000,0
1595393088.332,104.980,-23.926,-17.090,3.906,0.000,0
1595393088.336,51.758,-22.949,-16.113,-1.953,0.000,0
1595393088.340,-74.219,-28.809,-29.297,-5.371,0.000,0
1595393088.344,-52.734,-32.715,-38.086,-5.859,0.000,0
1595393088.348,74.707,-29.297,-17.578,-9.277,0.000,0
1595393088.351,78.613,-26.855,-11.719,-5.371,0.000,0
1595393088.355,-49.316,-31.250,-15.625,0.977,0.000,0
1595393088.359,-79.102,-35.645,-25.391,-1.953,0.000,0
1595393088.363,44.922,-29.297,-19.531,-4.395,0.000,0
1595393088.367,100.586,-27.344,-18.555,-1.953,0.000,0
1595393088.371,-11.230,-35.645,-30.762,4.883,0.000,0
1595393088.375,-78.125,-35.156,-39.551,4.395,0.000,0
1595393088.379,36.133,-29.297,-27.344,5.371,0.000,0
1595393088.383,125.977,-26.855,-21.973,12.207,0.000,0
1595393088.387,29.785,-26.367,-30.273,11.719,0.000,0
1595393088.391,-90.332,-29.785,-35.645,2.441,0.000,0
1595393088.394,-31.250,-30.273,-24.414,-10.742,0.000,0
1595393088.398,93.262,-30.273,-18.066,-13.672,0.000,0
1595393088.402,48.828,-30.762,-25.879,-6.836,0.000,0
1595393088.406,-80.566,-28.320,-27.832,-3.906,0.000,0
1595393088.410,-59.570,-23.438,-27.832,-1.953,0.000,0
1595393088.414,69.824,-19.043,-17.090,-2.441,0.000,0
1595393088.418,75.684,-17.090,-19.043,-12.207,0.000,0
1595393088.422,-52.246,-16.113,-25.879,-11.230,0.000,0
1595393088.426,-81.543,-19.531,-29.785,-3.418,0.000,0
1595393088.430,29.785,-26.367,-32.715,-4.883,0.000,0
1595393088.433,79.102,-29.297,-45.898,2.441,0.000,0
1595393088.437,-26.855,-27.344,-38.086,3.418,0.000,0
1595393088.441,-100.586,-24.414,-33.691,2.441,0.000,0
1595393088.445,-6.836,-19.531,-29.785,3.418,0.000,0
1595393088.449,74.707,-20.996,-29.297,-7.324,0.000,0
1595393088.453,3.906,-21.973,-31.250,-5.859,0.000,0
1595393088.457,-92.773,-23.926,-41.016,0.977,0.000,0
1595393088.461,-26.855,-21.484,-39.551,-0.488,0.000,0
1595393088.465,99.609,-18.066,-28.320,-3.906,0.000,0
1595393088.469,66.406,-17.578,-28.320,-1.465,0.000,0
1595393088.473,-59.082,-20.508,-30.273,4.883,0.000,0
1595393088.476,-51.758,-23.926,-31.250,0.000,0.000,0
1595393088.480,75.195,-20.508,-20.020,-4.883,0.000,0
1595393088.484,88.379,-21.973,-15.625,-0.488,0.000,0
1595393088.488,-42.480,-29.297,-20.996,6.348,0.000,0
1595393088.492,-83.984,-30.762,-32.227,1.465,0.000,0
1595393088.496,36.621,-26.367,-20.996,-2.930,0.000,0
1595393088.500,101.562,-24.902,-7.812,-1.465,0.000,0
1595393088.504,3.906,-30.273,-15.137,-0.488,0.000,0
1595393088.508,-77.637,-33.203,-21.484,1.953,0.000,0
1595393088.512,8.789,-34.180,-7.324,0.000,0.000,0
1595393088.516,109.863,-40.527,-3.418,-1.465,0.000,0
1595393088.519,36.621,-44.922,-18.555,3.906,0.000,0
1595393088.523,-82.031,-46.387,-30.762,13.672,0.000,0
1595393088.527,-36.133,-42.480,-16.113,7.812,0.000,0
1595393088.531,94.238,-33.203,-1.953,-8.301,0.000,0
1595393088.535,77.148,-35.645,-19.531,-8.301,0.000,0
1595393088.539,-61.035,-43.457,-30.762,-9.277,0.000,0
1595393088.543,-79.102,-41.992,-27.832,-17.090,0.000,0
1595393088.547,36.621,-38.574,-22.949,-13.184,0.000,0
1595393088.551,67.383,-40.039,-31.250,-8.301,0.000,0
1595393088.555,-48.340,-36.621,-29.785,-3.906,0.000,0
1595393088.558,-104.980,-29.297,-23.438,0.977,0.000,0
1595393088.562,-1.465,-32.227,-24.902,-2.930,0.000,0
1595393088.566,72.266,-41.016,-33.203,-3.418,0.000,0
1595393088.570,-25.879,-37.109,-27.832,0.488,0.000,0
1595393088.574,-123.535,-33.203,-21.973,-3.906,0.000,0
1595393088.578,-43.457,-33.203,-20.508,-4.395,0.000,0
1595393088.582,69.824,-32.227,-21.973,-2.930,0.000,0
1595393088.586,7.324,-35.645,-22.461,-8.789,0.000,0
1595393088.590,-114.258,-36.621,-29.785,-8.301,0.000,0
1595393088.594,-67.383,-36.621,-34.180,-9.766,0.000,0
1595393088.598,73.242,-37.109,-29.297,-15.137,0.000,0
1595393088.601,69.336,-35.645,-20.508,-17.578,0.000,0
1595393088.605,-54.199,-37.109,-15.625,-11.230,0.000,0
1595393088.609,-67.383,-39.062,-22.461,-8.789,0.000,0
1595393088.613,59.570,-39.062,-20.996,-16.602,0.000,0
1595393088.617,102.051,-35.645,-17.090,-15.625,0.000,0
1595393088.621,-22.461,-35.156,-13.672,-7.812,0.000,0
1595393088.625,-98.145,-32.715,-20.508,-6.836,0.000,0
1595393088.629,0.977,-30.273,-27.344,-8.301,0.000,0
1595393088.633,78.613,-33.203,-20.996,-22.461,0.000,0
1595393088.637,-20.020,-37.598,-17.578,-22.949,0.000,0
1595393088.641,-126.465,-43.457,-26.367,-14.648,0.000,0
1595393088.644,-52.734,-42.969,-20.996,-23.438,0.000,0
1595393088.648,71.289,-40.039,-11.719,-23.926,0.000,0
1595393088.652,30.762,-37.598,-15.625,-15.137,0.000,0
1595393088.656,-91.309,-38.574,-21.973,-16.113,0.000,0
1595393088.660,-61.035,-42.480,-23.438,-14.648,0.000,0
1595393088.664,73.730,-34.668,-15.625,-13.672,0.000,0
1595393088.668,70.312,-30.273,-21.973,-18.555,0.000,0
1595393088.672,-60.547,-35.645,-35.645,-15.137,0.000,0
1595393088.676,-90.820,-35.156,-38.086,-6.348,0.000,0
1595393088.680,33.203,-31.250,-21.973,-11.719,0.000,0
1595393088.683,95.703,-33.203,-21.973,-13.672,0.000,0
1595393088.687,-18.555,-37.598,-27.344,-7.812,0.000,0
1595393088.691,-93.750,-39.062,-32.715,-7.812,0.000,0
1595393088.695,10.742,-37.598,-23.926,-13.672,0.000,0
1595393088.699,104.492,-34.668,-15.137,-16.602,0.000,0
1595393088.703,23.438,-32.227,-20.508,-9.766,0.000,0
1595393088.707,-89.844,-34.180,-30.273,-9.766,0.000,0
1595393088.711,-37.109,-36.133,-25.391,-12.207,0.000,0
1595393088.715,83.008,-36.621,-17.578,-13.672,0.000,0
1595393088.719,49.316,-34.180,-30.762,-10.254,0.000,0
1595393088.723,-80.078,-34.668,-26.367,-7.324,0.000,0
1595393088.726,-65.430,-37.598,-25.391,-12.207,0.000,0
1595393088.730,77.637,-34.668,-21.484,-7.324,0.000,0
1595393088.734,92.773,-33.691,-20.996,1.953,0.000,0
1595393088.738,-41.992,-35.645,-23.926,5.859,0.000,0
1595393088.742,-80.078,-41.016,-27.344,0.977,0.000,0
1595393088.746,43.457,-41.016,-20.996,-6.836,0.000,0
1595393088.750,107.910,-39.551,-22.949,-6.836,0.000,0
1595393088.754,-6.836,-46.875,-26.367,-6.836,0.000,0
1595393088.758,-99.609,-49.316,-28.320,-6.348,0.000,0
1595393088.762,3.906,-44.434,-20.508,2.930,0.000,0
1595393088.766,109.863,-45.410,-13.184,0.488,0.000,0
1595393088.769,27.344,-47.852,-14.648,-4.883,0.000,0
1595393088.773,-84.961,-43.457,-17.090,4.883,0.000,0
1595393088.777,-29.785,-42.480,-24.414,3.418,0.000,0
1595393088.781,93.262,-41.016,-20.020,-2.930,0.000,0
1595393088.785,63.477,-36.133,-16.113,-3.418,0.000,0
1595393088.789,-70.312,-35.645,-25.879,-5.371,0.000,0
1595393088.793,-77.148,-41.016,-36.621,-10.742,0.000,0
1595393088.797,43.945,-40.527,-25.879,-14.160,0.000,0
1595393088.801,62.012,-36.621,-22.949,-17.090,0.000,0
1595393088.805,-62.988,-36.621,-28.320,-15.625,0.000,0
1595393088.808,-111.816,-41.016,-36.621,-18.066,0.000,0
1595393088.812,6.836,-39.062,-22.461,-20.996,0.000,0
1595393088.816,81.543,-34.668,-20.996,-23.438,0.000,0
1595393088.820,-22.461,-36.133,-33.691,-18.066,0.000,0
1595393088.824,-122.559,-41.992,-50.293,-3.906,0.000,0
1595393088.828,-33.691,-40.039,-30.273,-5.859,0.000,0
1595393088.832,83.496,-33.203,-13.672,-13.184,0.000,0
1595393088.836,16.602,-33.203,-22.949,-13.672,0.000,0
1595393088.840,-104.004,-32.227,-20.996,-12.207,0.000,0
1595393088.844,-63.477,-33.691,-19.531,-10.254,0.000,0
1595393088.848,70.312,-34.668,-17.090,-6.348,0.000,0
1595393088.851,53.223,-36.133,-20.996,-4.395,0.000,0
1595393088.855,-82.031,-36.133,-25.879,-10.742,0.000,0
1595393088.859,-89.355,-31.738,-18.555,-12.695,0.000,0
1595393088.863,43.457,-33.203,-10.254,-6.348,0.000,0
1595393088.867,77.148,-37.109,-20.996,-0.977,0.000,0
1595393088.871,-46.387,-33.691,-20.996,2.930,0.000,0
1595393088.875,-110.352,-33.691,-31.250,-4.883,0.000,0
1595393088.879,-2.930,-35.156,-35.156,-13.184,0.000,0
1595393088.883,85.449,-32.715,-32.715,-13.184,0.000,0
1595393088.887,-8.789,-31.250,-32.227,-8.301,0.000,0
1595393088.891,-111.328,-36.621,-41.992,-4.883,0.000,0
1595393088.894,-38.574,-44.434,-50.293,-9.277,0.000,0
1595393088.898,81.055,-43.945,-42.969,-9.766,0.000,0
1595393088.902,28.320,-41.992,-31.250,-6.348,0.000,0
1595393088.906,-119.141,-46.387,-32.227,-8.301,0.000,0
1595393088.910,-93.262,-47.852,-34.180,-6.348,0.000,0
1595393088.914,46.387,-41.992,-22.461,-3.418,0.000,0
1595393088.918,45.898,-29.785,-20.020,-5.859,0.000,0
1595393088.922,-83.984,-27.344,-27.832,-8.301,0.000,0
1595393088.926,-113.281,-36.133,-36.133,-18.555,0.000,0
1595393088.930,9.277,-33.203,-29.785,-22.461,0.000,0
1595393088.933,55.664,-27.344,-30.762,-20.020,0.000,0
1595393088.937,-48.340,-28.320,-34.668,-16.113,0.000,0
1595393088.941,-108.398,-32.715,-37.598,-11.230,0.000,0
1595393088.945,-16.113,-34.668,-30.273,-17.090,0.000,0
1595393088.949,75.684,-30.762,-21.484,-11.230,0.000,0
1595393088.953,-17.090,-25.879,-19.531,-0.488,0.000,0
1595393088.957,-133.789,-29.297,-30.273,0.488,0.000,0
1595393088.961,-60.059,-36.621,-27.344,-7.324,0.000,0
1595393088.965,73.730,-38.086,-18.066,-9.277,0.000,0
1595393088.969,36.133,-42.969,-25.391,-10.254,0.000,0
1595393088.973,-91.797,-48.340,-34.668,-3.906,0.000,0
1595393088.976,-66.895,-39.551,-30.273,5.371,0.000,0
1595393088.980,68.848,-36.621,-20.996,-3.418,0.000,0
1595393088.984,83.496,-37.598,-25.391,-10.254,0.000,0
1595393088.988,-36.621,-33.691,-30.273,-11.230,0.000,0
1595393088.992,-65.918,-31.250,-28.809,-9.766,0.000,0
1595393088.996,64.453,-24.902,-17.090,-3.418,0.000,0
1595393089.000,119.629,-26.855,-22.461,-8.301,0.000,0
1595393089.004,-8.789,-33.691,-35.156,-18.555,0.000,0
1595393089.008,-96.191,-24.414,-33.691,-15.137,0.000,0
1595393089.012,3.906,-19.531,-24.902,-4.883,0.000,0
1595393089.016,103.027,-27.344,-21.973,-11.719,0.000,0
1595393089.019,24.902,-33.203,-27.832,-25.879,0.000,0
1595393089.023,-86.914,-33.203,-36.133,-23.438,0.000,0
1595393089.027,-32.227,-27.832,-30.273,-21.973,0.000,0
1595393089.031,95.703,-29.785,-26.855,-23.438,0.000,0
1595393089.035,70.312,-31.250,-34.180,-18.066,0.000,0
1595393089.039,-64.453,-28.320,-29.297,-6.836,0.000,0
1595393089.043,-62.012,-26.855,-23.438,-5.859,0.000,0
1595393089.047,67.871,-23.438,-20.508,-15.137,0.000,0
1595393089.051,92.285,-17.090,-16.602,-7.812,0.000,0
1595393089.055,-30.762,-19.531,-16.113,5.371,0.000,0
1595393089.058,-83.984,-29.297,-29.297,4.883,0.000,0
1595393089.062,36.133,-29.297,-28.320,-8.789,0.000,0
1595393089.066,108.398,-22.949,-16.113,-3.418,0.000,0
1595393089.070,-2.441,-24.414,-4.883,3.418,0.000,0
1595393089.074,-91.309,-25.391,-19.531,0.488,0.000,0
1595393089.078,3.418,-20.020,-23.926,-5.859,0.000,0
1595393089.082,106.445,-20.996,-14.160,-9.766,0.000,0
1595393089.086,26.855,-23.926,-17.578,-6.348,0.000,0
1595393089.090,-101.562,-30.762,-24.414,-5.371,0.000,0
1595393089.094,-62.012,-36.133,-22.461,-7.812,0.000,0
1595393089.098,62.988,-32.715,-12.207,-13.184,0.000,0
1595393089.101,43.457,-31.250,-11.230,1.953,0.000,0
1595393089.105,-89.844,-35.645,-17.578,9.766,0.000,0
1595393089.109,-90.820,-37.598,-29.297,3.418,0.000,0
1595393089.113,39.062,-29.785,-8.789,1.953,0.000,0
1595393089.117,65.918,-23.438,-2.930,0.488,0.000,0
1595393089.121,-56.641,-26.855,-20.996,0.488,0.000,0
1595393089.125,-105.957,-29.297,-27.344,0.977,0.000,0
1595393089.129,12.207,-29.785,-20.508,-8.789,0.000,0
1595393089.133,87.891,-35.156,-22.949,-13.184,0.000,0
1595393089.137,-9.277,-34.180,-32.227,-11.719,0.000,0
1595393089.141,-107.422,-33.691,-41.504,-14.648,0.000,0
1595393089.144,-23.926,-38.086,-30.762,-17.578,0.000,0
1595393089.148,96.680,-31.738,-17.578,-7.324,0.000,0
1595393089.152,34.180,-29.785,-23.926,-0.488,0.000,0
1595393089.156,-90.820,-32.715,-27.832,-1.953,0.000,0
1595393089.160,-54.199,-35.645,-25.391,-2.441,0.000,0
1595393089.164,77.637,-29.785,-12.695,1.465,0.000,0
1595393089.168,65.918,-29.297,-23.438,7.812,0.000,0
1595393089.172,-59.570,-34.668,-27.344,11.230,0.000,0
1595393089.176,-62.012,-33.691,-17.578,0.000,0.000,0
1595393089.180,65.918,-29.785,-14.648,-8.789,0.000,0
1595393089.183,100.098,-25.879,-22.461,-0.488,0.000,0
1595393089.187,-25.879,-26.855,-18.555,-0.977,0.000,0
1595393089.191,-90.820,-31.738,-17.090,-5.859,0.000,0
1595393089.195,17.578,-29.297,-16.113,-6.348,0.000,0
1595393089.199,101.074,-25.879,-13.672,-8.789,0.000,0
1595393089.203,5.371,-27.832,-17.578,-9.277,0.000,0
1595393089.207,-98.145,-32.715,-27.832,-12.207,0.000,0
1595393089.211,-29.297,-32.715,-31.738,-19.531,0.000,0
1595393089.215,87.891,-29.785,-26.367,-22.949,0.000,0
1595393089.219,45.898,-29.785,-27.344,-17.578,0.000,0
1595393089.223,-82.031,-28.809,-35.645,-3.418,0.000,0
1595393089.226,-61.035,-31.738,-36.133,-9.277,0.000,0
1595393089.230,68.848,-31.738,-21.484,-10.254,0.000,0
1595393089.234,72.266,-26.855,-9.277,-6.836,0.000,0
1595393089.238,-56.152,-30.273,-15.625,-6.836,0.000,0
1595393089.242,-91.797,-35.645,-27.344,-7.812,0.000,0
1595393089.246,33.691,-31.738,-11.230,-8.789,0.000,0
1595393089.250,89.355,-31.250,-11.230,-10.254,0.000,0
1595393089.254,-25.879,-28.320,-27.832,-10.254,0.000,0
1595393089.258,-97.168,-26.367,-38.086,-10.254,0.000,0
1595393089.262,3.418,-27.832,-21.484,-17.090,0.000,0
1595393089.266,99.609,-29.785,-12.695,-18.555,0.000,0
1595393089.269,13.672,-35.156,-21.484,-10.742,0.000,0
1595393089.273,-96.680,-38.574,-34.668,-7.812,0.000,0
1595393089.277,-27.832,-35.156,-28.320,-9.277,0.000,0
1595393089.281,97.656,-32.715,-16.602,-7.812,0.000,0
1595393089.285,56.152,-35.645,-27.832,-15.625,0.000,0
1595393089.289,-72.754,-39.062,-49.316,-14.648,0.000,0
1595393089.293,-62.500,-37.109,-44.434,-18.555,0.000,0
1595393089.297,62.500,-33.203,-33.203,-22.461,0.000,0
1595393089.301,77.637,-31.250,-38.086,-20.508,0.000,0
1595393089.305,-52.734,-36.621,-44.434,-17.090,0.000,0
1595393089.308,-100.098,-39.062,-47.363,-10.254,0.000,0
1595393089.312,20.020,-35.645,-32.715,-16.602,0.000,0
1595393089.316,82.520,-33.203,-35.645,-21.973,0.000,0
1595393089.320,-31.250,-29.297,-42.969,-19.043,0.000,0
1595393089.324,-114.258,-29.297,-46.387,-22.949,0.000,0
1595393089.328,-18.555,-30.762,-40.527,-16.113,0.000,0
1595393089.332,87.891,-31.250,-38.086,-10.742,0.000,0
1595393089.336,19.531,-30.273,-44.434,-26.855,0.000,0
1595393089.340,-104.492,-34.180,-46.387,-32.227,0.000,0
1595393089.344,-64.941,-38.086,-43.457,-23.926,0.000,0
1595393089.348,67.383,-32.227,-34.668,-13.672,0.000,0
1595393089.351,42.969,-32.715,-27.832,-14.160,0.000,0
1595393089.355,-88.379,-40.527,-31.738,-20.508,0.000,0
1595393089.359,-70.801,-36.621,-38.086,-12.207,0.000,0
1595393089.363,64.453,-29.785,-30.273,-8.301,0.000,0
1595393089.367,86.914,-32.715,-27.344,-16.602,0.000,0
1595393089.371,-50.293,-35.645,-32.227,-18.066,0.000,0
1595393089.375,-107.910,-34.668,-35.156,-8.301,0.000,0
1595393089.379,10.254,-39.551,-37.109,3.418,0.000,0
1595393089.383,78.613,-41.016,-28.320,-19.531,0.000,0
1595393089.387,-26.855,-38.086,-23.926,-27.344,0.000,0
1595393089.391,-117.188,-37.598,-38.086,-13.672,0.000,0
1595393089.394,-29.297,-40.039,-36.621,-17.090,0.000,0
1595393089.398,82.031,-38.574,-28.809,-17.090,0.000,0
1595393089.402,16.602,-38.086,-34.180,-9.766,0.000,0
1595393089.406,-101.562,-38.086,-39.062,-9.766,0.000,0
1595393089.410,-52.734,-36.133,-33.691,-10.254,0.000,0
1595393089.414,82.031,-30.273,-15.625,-4.395,0.000,0
1595393089.418,64.941,-28.809,-14.160,-9.766,0.000,0
1595393089.422,-65.918,-33.691,-23.926,-10.254,0.000,0
1595393089.426,-74.707,-29.297,-26.855,-1.953,0.000,0
1595393089.430,51.270,-24.414,-19.043,-11.230,0.000,0
1595393089.433,89.844,-23.438,-24.414,-11.719,0.000,0
1595393089.437,-32.227,-31.250,-39.062,-4.395,0.000,0
1595393089.441,-89.844,-37.109,-43.457,-7.812,0.000,0
1595393089.445,28.809,-31.738,-27.344,-10.742,0.000,0
1595393089.449,113.770,-25.391,-23.926,-3.906,0.000,0
1595393089.453,20.020,-27.344,-30.762,-6.836,0.000,0
1595393089.457,-90.820,-34.180,-37.598,-8.301,0.000,0
1595393089.461,-15.625,-31.250,-24.414,-5.371,0.000,0
1595393089.465,105.957,-29.297,-16.113,-8.301,0.000,0
1595393089.469,48.340,-30.762,-27.832,-5.859,0.000,0
1595393089.473,-78.613,-28.809,-25.391,-2.441,0.000,0
1595393089.476,-48.340,-26.855,-22.949,1.953,0.000,0
1595393089.480,85.449,-31.738,-19.531,-11.230,0.000,0
1595393089.484,83.008,-34.668,-24.902,-13.672,0.000,0
1595393089.488,-46.387,-29.785,-25.391,-5.859,0.000,0
1595393089.492,-60.059,-30.273,-23.438,-8.301,0.000,0
1595393089.496,65.430,-32.227,-21.484,-4.883,0.000,0
1595393089.500,109.863,-30.273,-22.949,-2.441,0.000,0
1595393089.504,-10.742,-30.273,-25.391,-4.883,0.000,0
1595393089.508,-89.355,-34.668,-29.785,-5.859,0.000,0
1595393089.512,13.184,-34.668,-24.414,-6.836,0.000,0
1595393089.516,101.562,-32.715,-22.949,-4.395,0.000,0
1595393089.519,16.602,-34.668,-15.137,-1.953,0.000,0
1595393089.523,-85.449,-35.645,-18.066,3.906,0.000,0
1595393089.527,-23.438,-34.668,-19.531,10.742,0.000,0
1595393089.531,92.773,-35.156,-14.160,-3.418,0.000,0
1595393089.535,48.340,-37.598,-20.020,-14.160,0.000,0
1595393089.539,-83.008,-41.504,-27.344,-12.207,0.000,0
1595393089.543,-67.871,-45.898,-24.414,-14.160,0.000,0
1595393089.547,64.941,-41.992,-17.578,-17.578,0.000,0
1595393089.551,68.848,-41.016,-25.391,-15.137,0.000,0
1595393089.555,-62.988,-44.922,-30.273,-9.766,0.000,0
1595393089.558,-93.262,-44.922,-33.203,-11.719,0.000,0
1595393089.562,30.762,-40.039,-16.113,-17.090,0.000,0
1595393089.566,91.797,-37.109,-10.254,-12.695,0.000,0
1595393089.570,-20.996,-35.156,-19.531,-9.766,0.000,0
1595393089.574,-95.703,-35.156,-31.250,-12.207,0.000,0
1595393089.578,16.602,-36.133,-24.414,0.000,0.000,0
1595393089.582,119.141,-39.062,-25.391,-0.488,0.000,0
1595393089.586,32.227,-43.457,-41.992,-14.160,0.000,0
1595393089.590,-95.215,-44.434,-49.805,-18.066,0.000,0
1595393089.594,-42.480,-40.527,-42.480,-22.461,0.000,0
1595393089.598,83.008,-32.227,-36.133,-22.461,0.000,0
1595393089.601,54.199,-32.227,-38.086,-11.230,0.000,0
1595393089.605,-73.242,-34.180,-35.156,-8.301,0.000,0
1595393089.609,-64.453,-31.250,-28.809,-15.625,0.000,0
1595393089.613,63.477,-28.320,-24.902,-16.602,0.000,0
1595393089.617,91.797,-27.344,-39.062,-6.348,0.000,0
1595393089.621,-20.020,-23.926,-38.086,2.930,0.000,0
1595393089.625,-68.848,-31.738,-41.016,-5.859,0.000,0
1595393089.629,46.875,-37.598,-41.504,-10.742,0.000,0
1595393089.633,107.422,-37.109,-42.969,-5.371,0.000,0
1595393089.637,-15.625,-38.086,-45.410,0.488,0.000,0
1595393089.641,-108.398,-37.109,-45.410,-7.812,0.000,0
1595393089.644,-12.695,-35.156,-33.203,-12.695,0.000,0
1595393089.648,95.215,-31.738,-26.855,-12.695,0.000,0
1595393089.652,22.461,-36.133,-33.203,-15.137,0.000,0
1595393089.656,-97.656,-40.039,-36.133,-12.207,0.000,0
1595393089.660,-49.316,-39.062,-33.691,-7.812,0.000,0
1595393089.664,84.473,-41.016,-35.156,-1.465,0.000,0
1595393089.668,65.430,-41.016,-20.020,2.441,0.000,0
1595393089.672,-57.617,-38.086,-12.207,-3.418,0.000,0
1595393089.676,-60.547,-34.668,-22.949,-3.906,0.000,0
1595393089.680,61.523,-33.203,-19.043,5.371,0.000,0
1595393089.683,90.820,-35.156,-15.625,1.465,0.000,0
1595393089.687,-33.203,-43.457,-21.484,1.465,0.000,0
1595393089.691,-87.891,-51.270,-33.691,-2.441,0.000,0
1595393089.695,23.438,-52.734,-29.297,-10.742,0.000,0
1595393089.699,101.074,-47.852,-20.020,-14.160,0.000,0
1595393089.703,1.953,-44.434,-20.996,-11.230,0.000,0
1595393089.707,-99.121,-40.039,-31.738,-10.254,0.000,0
1595393089.711,-24.414,-37.109,-26.367,-15.137,0.000,0
1595393089.715,89.844,-33.203,-10.742,-8.301,0.000,0
1595393089.719,32.715,-30.762,-15.625,-6.836,0.000,0
1595393089.723,-99.609,-36.621,-33.203,-7.812,0.000,0
1595393089.726,-63.965,-38.086,-22.461,-3.906,0.000,0
1595393089.730,62.988,-35.156,-7.324,-1.465,0.000,0
1595393089.734,50.781,-37.598,-20.020,-8.301,0.000,0
1595393089.738,-75.684,-39.551,-32.715,-12.695,0.000,0
1595393089.742,-91.797,-38.574,-29.297,-10.254,0.000,0
1595393089.746,35.156,-36.133,-20.508,-5.859,0.000,0
1595393089.750,77.148,-33.203,-31.250,-4.883,0.000,0
1595393089.754,-37.109,-38.086,-38.574,-11.230,0.000,0
1595393089.758,-97.656,-41.504,-36.133,-16.113,0.000,0
1595393089.762,8.301,-36.621,-26.367,-16.602,0.000,0
1595393089.766,102.539,-32.227,-36.133,-12.207,0.000,0
1595393089.769,13.184,-32.715,-40.527,-0.977,0.000,0
1595393089.773,-100.586,-33.691,-32.715,-5.859,0.000,0
1595393089.777,-33.691,-27.832,-24.902,-5.371,0.000,0
1595393089.781,81.543,-29.785,-22.461,-4.883,0.000,0
1595393089.785,27.344,-33.691,-26.367,-9.766,0.000,0
1595393089.789,-106.445,-36.621,-26.855,-13.672,0.000,0
1595393089.793,-84.961,-39.062,-23.438,-19.043,0.000,0
1595393089.797,51.758,-35.645,-18.555,-17.090,0.000,0
1595393089.801,57.129,-29.297,-19.531,-7.324,0.000,0
1595393089.805,-74.219,-30.273,-22.461,-12.695,0.000,0
1595393089.808,-104.004,-37.598,-29.297,-30.273,0.000,0
1595393089.812,21.484,-39.062,-28.809,-29.297,0.000,0
1595393089.816,77.637,-38.574,-26.855,-21.484,0.000,0
1595393089.820,-33.691,-35.156,-29.785,-19.043,0.000,0
1595393089.824,-107.910,-36.621,-44.434,-13.672,0.000,0
1595393089.828,-4.883,-39.551,-41.992,-12.695,0.000,0
1595393089.832,96.191,-35.645,-34.180,-15.625,0.000,0
1595393089.836,14.160,-32.227,-28.320,-11.719,0.000,0
1595393089.840,-95.703,-32.227,-37.598,-12.207,0.000,0
1595393089.844,-38.574,-41.016,-41.504,-13.184,0.000,0
1595393089.848,87.402,-38.086,-20.508,-13.672,0.000,0
1595393089.851,61.523,-36.133,-28.809,-7.324,0.000,0
1595393089.855,-66.406,-41.992,-46.387,0.000,0.000,0
1595393089.859,-60.059,-40.527,-50.781,-9.766,0.000,0
1595393089.863,67.383,-40.039,-40.527,-16.602,0.000,0
1595393089.867,83.496,-42.969,-36.133,-15.625,0.000,0
1595393089.871,-39.062,-41.504,-39.062,-10.254,0.000,0
1595393089.875,-74.219,-37.109,-40.039,3.418,0.000,0
1595393089.879,51.270,-34.180,-35.156,4.395,0.000,0
1595393089.883,110.840,-29.785,-34.668,-7.812,0.000,0
1595393089.887,-5.371,-29.297,-39.551,-8.789,0.000,0
1595393089.891,-99.609,-35.156,-48.828,-3.418,0.000,0
1595393089.894,-7.324,-32.227,-24.414,-4.883,0.000,0
1595393089.898,103.516,-28.320,-8.789,-3.418,0.000,0
1595393089.902,28.809,-28.809,-26.367,3.906,0.000,0
1595393089.906,-93.262,-28.809,-38.574,-2.930,0.000,0
1595393089.910,-52.734,-35.156,-32.227,-18.066,0.000,0
1595393089.914,64.453,-38.574,-26.367,-20.508,0.000,0
1595393089.918,39.062,-38.086,-34.180,-20.508,0.000,0
1595393089.922,-86.426,-39.062,-32.227,-12.207,0.000,0
1595393089.926,-81.543,-37.109,-29.297,-13.184,0.000,0
1595393089.930,51.270,-33.691,-25.391,-20.020,0.000,0
1595393089.933,75.684,-34.668,-23.926,-20.996,0.000,0
1595393089.937,-53.711,-36.621,-26.855,-22.949,0.000,0
1595393089.941,-114.746,-37.109,-33.691,-23.438,0.000,0
1595393089.945,-15.625,-41.016,-30.273,-22.461,0.000,0
1595393089.949,61.523,-42.969,-33.203,-16.113,0.000,0
1595393089.953,-24.902,-39.551,-25.879,-10.254,0.000,0
1595393089.957,-120.605,-38.574,-28.809,-12.207,0.000,0
1595393089.961,-41.504,-36.133,-21.973,-17.090,0.000,0
1595393089.965,73.730,-33.691,-13.672,-14.160,0.000,0
1595393089.969,12.207,-33.691,-15.625,-6.836,0.000,0
1595393089.973,-113.770,-39.062,-19.043,-5.859,0.000,0
1595393089.976,-72.754,-38.574,-20.996,-3.418,0.000,0
1595393089.980,65.918,-32.715,-14.648,-2.930,0.000,0
1595393089.984,62.012,-32.715,-13.672,-6.836,0.000,0
1595393089.988,-69.824,-30.273,-17.578,-0.488,0.000,0
1595393089.992,-82.520,-28.809,-25.391,-0.977,0.000,0
1595393089.996,54.688,-29.785,-19.531,-10.742,0.000,0
1595393090.000,96.191,-29.785,-20.020,-9.766,0.000,0
1595393090.004,-26.855,-32.715,-24.414,-1.953,0.000,0
1595393090.008,-88.867,-38.086,-37.109,-2.930,0.000,0
1595393090.012,13.672,-36.621,-29.297,-17.578,0.000,0
1595393090.016,90.820,-31.738,-20.508,-15.137,0.000,0
1595393090.019,-3.906,-27.832,-28.809,3.906,0.000,0
1595393090.023,-104.492,-30.762,-38.574,12.695,0.000,0
1595393090.027,-22.949,-25.391,-25.879,0.488,0.000,0
1595393090.031,100.098,-19.531,-12.695,-9.277,0.000,0
1595393090.035,51.270,-24.902,-15.625,-6.836,0.000,0
1595393090.039,-72.266,-28.320,-24.902,-3.418,0.000,0
1595393090.043,-36.621,-27.344,-25.391,2.441,0.000,0
1595393090.047,92.773,-27.344,-18.066,2.930,0.000,0
1595393090.051,77.637,-29.785,-29.785,-1.953,0.000,0
1595393090.055,-46.387,-32.715,-36.621,1.465,0.000,0
1595393090.058,-68.359,-31.250,-30.762,0.977,0.000,0
1595393090.062,50.293,-26.855,-22.949,-1.465,0.000,0
1595393090.066,101.074,-24.414,-24.902,2.441,0.000,0
1595393090.070,-20.020,-29.297,-25.391,-5.859,0.000,0
1595393090.074,-102.051,-35.156,-24.902,-9.766,0.000,0
1595393090.078,0.977,-35.645,-24.414,-4.395,0.000,0
1595393090.082,103.516,-35.156,-38.086,-4.395,0.000,0
1595393090.086,20.020,-40.527,-45.410,-4.883,0.000,0
1595393090.090,-90.820,-41.504,-41.992,-3.418,0.000,0
1595393090.094,-21.484,-38.574,-32.715,-5.371,0.000,0
1595393090.098,101.074,-37.598,-32.227,-5.859,0.000,0
1595393090.101,57.617,-41.504,-31.250,-6.348,0.000,0
1595393090.105,-68.359,-45.898,-28.320,-6.836,0.000,0
1595393090.109,-50.781,-44.922,-35.156,-3.418,0.000,0
1595393090.113,79.590,-41.504,-32.715,-1.953,0.000,0
1595393090.117,90.332,-39.551,-30.762,-4.883,0.000,0
1595393090.121,-37.109,-33.691,-30.273,-2.930,0.000,0
1595393090.125,-71.777,-34.180,-31.738,0.000,0.000,0
1595393090.129,43.457,-41.504,-35.156,1.465,0.000,0
1595393090.133,100.098,-37.598,-35.156,-1.953,0.000,0
1595393090.137,-5.859,-33.691,-32.715,-2.930,0.000,0
1595393090.141,-92.285,-42.480,-40.039,-11.230,0.000,0
1595393090.144,1.465,-40.039,-36.621,-16.113,0.000,0
1595393090.148,104.980,-31.250,-27.344,-12.207,0.000,0
1595393090.152,31.738,-30.762,-20.020,-7.324,0.000,0
1595393090.156,-81.543,-38.086,-29.785,4.883,0.000,0
1595393090.160,-32.227,-41.504,-39.062,-0.977,0.000,0
1595393090.164,89.844,-37.598,-28.809,-19.043,0.000,0
1595393090.168,61.523,-37.109,-26.855,-15.137,0.000,0
1595393090.172,-66.895,-40.527,-41.992,-5.371,0.000,0
1595393090.176,-71.289,-40.527,-48.340,-6.348,0.000,0
1595393090.180,53.223,-32.227,-23.926,-13.672,0.000,0
1595393090.183,73.730,-32.227,-30.273,-11.719,0.000,0
1595393090.187,-53.711,-34.180,-54.199,-2.930,0.000,0
1595393090.191,-98.145,-37.109,-56.152,-7.324,0.000,0
1595393090.195,18.066,-38.086,-39.551,-16.113,0.000,0
1595393090.199,88.867,-36.133,-43.945,-20.020,0.000,0
1595393090.203,-9.277,-35.645,-52.246,-16.602,0.000,0
1595393090.207,-103.027,-41.016,-60.059,-15.137,0.000,0
1595393090.211,-1.465,-39.551,-47.363,-8.301,0.000,0
1595393090.215,123.047,-35.645,-34.668,-1.465,0.000,0
1595393090.219,30.762,-40.527,-56.152,-23.438,0.000,0
1595393090.223,-102.051,-34.668,-59.082,-39.551,0.000,0
1595393090.226,-46.387,-28.809,-49.316,-40.527,0.000,0
1595393090.230,83.496,-27.344,-38.086,-42.480,0.000,0
1595393090.234,45.410,-27.344,-39.551,-50.293,0.000,0
1595393090.238,-89.844,-27.832,-43.945,-49.805,0.000,0
1595393090.242,-95.703,-25.391,-49.316,-53.711,0.000,0
1595393090.246,20.996,-29.297,-51.270,-59.570,0.000,0
1595393090.250,51.270,-29.785,-49.805,-53.223,0.000,0
1595393090.254,-68.848,-32.227,-47.852,-51.758,0.000,0
1595393090.258,-121.094,-37.109,-51.758,-49.805,0.000,0
1595393090.262,-5.371,-36.133,-45.898,-47.363,0.000,0
1595393090.266,79.102,-33.691,-36.621,-38.086,0.000,0
1595393090.269,-5.371,-32.715,-30.762,-25.391,0.000,0
1595393090.273,-96.680,-31.250,-40.039,-15.625,0.000,0
1595393090.277,-18.066,-31.738,-41.504,-19.531,0.000,0
1595393090.281,93.262,-29.785,-37.109,-19.531,0.000,0
1595393090.285,33.203,-31.250,-40.527,-11.719,0.000,0
1595393090.289,-94.238,-39.062,-47.363,-14.160,0.000,0
1595393090.293,-59.570,-36.133,-42.969,-12.695,0.000,0
1595393090.297,69.336,-28.320,-31.738,-10.254,0.000,0
1595393090.301,55.176,-31.250,-33.691,-11.230,0.000,0
1595393090.305,-67.383,-36.621,-38.574,-10.254,0.000,0
1595393090.308,-79.102,-31.250,-45.898,-2.441,0.000,0
1595393090.312,40.039,-25.879,-32.227,-16.113,0.000,0
1595393090.316,81.055,-29.297,-31.250,-22.461,0.000,0
1595393090.320,-31.738,-32.715,-44.434,-12.207,0.000,0
1595393090.324,-86.426,-30.762,-52.734,-11.719,0.000,0
1595393090.328,22.949,-29.297,-38.086,-17.090,0.000,0
1595393090.332,109.863,-29.785,-31.250,-15.625,0.000,0
1595393090.336,22.949,-28.320,-34.180,-9.766,0.000,0
1595393090.340,-79.102,-25.879,-32.715,-7.812,0.000,0
1595393090.344,-6.836,-31.738,-31.738,-19.043,0.000,0
1595393090.348,103.027,-33.203,-29.785,-31.738,0.000,0
1595393090.351,53.223,-27.344,-34.668,-20.996,0.000,0
1595393090.355,-67.871,-27.344,-39.062,-14.648,0.000,0
1595393090.359,-48.340,-24.902,-26.855,-15.137,0.000,0
1595393090.363,79.102,-21.484,-20.020,-12.207,0.000,0
1595393090.367,92.773,-21.973,-24.414,-8.301,0.000,0
1595393090.371,-30.762,-24.414,-21.973,0.000,0.000,0
1595393090.375,-61.523,-24.414,-19.531,0.000,0.000,0
1595393090.379,57.129,-25.391,-15.625,-7.324,0.000,0
1595393090.383,101.562,-26.855,-17.578,-5.371,0.000,0
1595393090.387,-26.367,-31.738,-20.996,-4.883,0.000,0
1595393090.391,-94.238,-31.250,-22.461,-0.488,0.000,0
1595393090.394,8.301,-29.785,-15.137,-0.977,0.000,0
1595393090.398,98.633,-33.203,-21.484,-3.906,0.000,0
1595393090.402,20.996,-31.738,-17.578,3.418,0.000,0
1595393090.406,-88.867,-32.715,-15.137,-0.977,0.000,0
1595393090.410,-23.438,-34.180,-19.531,-11.230,0.000,0
1595393090.414,99.609,-33.691,-22.461,-12.207,0.000,0
1595393090.418,67.871,-32.227,-24.414,-5.859,0.000,0
1595393090.422,-59.082,-31.738,-26.855,0.977,0.000,0
1595393090.426,-51.758,-36.133,-26.367,-1.953,0.000,0
1595393090.430,76.172,-37.109,-16.602,-1.953,0.000,0
1595393090.433,87.402,-29.297,-20.996,-3.906,0.000,0
1595393090.437,-46.875,-22.949,-28.809,-10.254,0.000,0
1595393090.441,-86.914,-30.762,-41.992,-11.230,0.000,0
1595393090.445,37.598,-37.598,-30.762,-10.742,0.000,0
1595393090.449,89.355,-37.109,-20.996,-12.207,0.000,0
1595393090.453,-26.367,-38.086,-31.250,-5.371,0.000,0
1595393090.457,-110.840,-41.504,-37.598,-5.859,0.000,0
1595393090.461,-22.949,-39.551,-27.832,-17.578,0.000,0
1595393090.465,79.102,-36.133,-23.438,-12.695,0.000,0
1595393090.469,5.371,-34.668,-30.273,-6.836,0.000,0
1595393090.473,-117.676,-34.668,-41.504,-4.883,0.000,0
1595393090.476,-67.871,-30.762,-34.668,-0.488,0.000,0
1595393090.480,56.641,-25.391,-22.949,4.395,0.000,0
1595393090.484,34.180,-27.832,-26.855,-3.906,0.000,0
1595393090.488,-104.980,-34.180,-41.992,-9.277,0.000,0
1595393090.492,-120.605,-37.598,-38.086,-7.812,0.000,0
1595393090.496,20.508,-35.645,-13.672,-8.789,0.000,0
1595393090.500,59.082,-30.762,-15.625,5.371,0.000,0
1595393090.504,-67.383,-33.203,-24.902,16.113,0.000,0
1595393090.508,-106.445,-28.809,-24.902,9.277,0.000,0
1595393090.512,15.625,-26.855,-16.602,10.742,0.000,0
1595393090.516,89.844,-31.738,-18.555,18.555,0.000,0
1595393090.519,-18.555,-37.109,-23.926,7.324,0.000,0
1595393090.523,-111.328,-41.016,-31.738,-5.371,0.000,0
1595393090.527,-16.602,-46.875,-35.156,-3.418,0.000,0
1595393090.531,102.051,-37.598,-36.133,-3.906,0.000,0
1595393090.535,34.180,-36.133,-38.086,-13.672,0.000,0
1595393090.539,-94.727,-42.969,-37.598,-11.230,0.000,0
1595393090.543,-55.664,-37.109,-36.621,-6.348,0.000,0
1595393090.547,73.242,-36.621,-31.738,-10.254,0.000,0
1595393090.551,55.664,-40.527,-33.691,-13.672,0.000,0
1595393090.555,-74.707,-40.039,-34.668,-9.766,0.000,0
1595393090.558,-85.449,-37.109,-31.250,0.488,0.000,0
1595393090.562,41.504,-36.621,-32.715,-2.441,0.000,0
1595393090.566,79.590,-34.180,-33.691,-5.371,0.000,0
1595393090.570,-43.945,-31.738,-23.438,-2.441,0.000,0
1595393090.574,-109.375,-34.180,-34.668,-4.883,0.000,0
1595393090.578,1.953,-30.762,-32.715,-3.418,0.000,0
1595393090.582,95.703,-23.926,-21.484,4.883,0.000,0
1595393090.586,1.953,-22.461,-23.926,8.789,0.000,0
1595393090.590,-110.840,-27.344,-40.527,4.883,0.000,0
1595393090.594,-38.574,-32.715,-41.992,-9.766,0.000,0
1595393090.598,73.242,-31.250,-30.273,-22.949,0.000,0
1595393090.601,12.695,-30.762,-32.227,-17.090,0.000,0
1595393090.605,-111.816,-31.738,-41.992,-6.836,0.000,0
1595393090.609,-85.449,-35.156,-46.387,2.930,0.000,0
1595393090.613,43.945,-31.738,-28.809,-2.930,0.000,0
1595393090.617,44.434,-26.367,-28.320,-4.883,0.000,0
1595393090.621,-88.379,-24.414,-41.992,-1.953,0.000,0
1595393090.625,-107.910,-27.344,-42.969,-5.859,0.000,0
1595393090.629,23.438,-32.227,-29.297,-7.324,0.000,0
1595393090.633,74.219,-29.297,-29.785,-7.324,0.000,0
1595393090.637,-38.086,-31.250,-33.691,-1.953,0.000,0
1595393090.641,-97.656,-28.320,-33.203,-0.977,0.000,0
1595393090.644,12.207,-27.344,-24.902,-8.301,0.000,0
1595393090.648,101.074,-27.832,-24.902,-7.812,0.000,0
1595393090.652,12.207,-27.832,-31.738,-2.930,0.000,0
1595393090.656,-96.191,-30.273,-37.109,-10.742,0.000,0
1595393090.660,-31.250,-32.227,-31.250,-18.066,0.000,0
1595393090.664,84.961,-32.227,-25.391,-20.996,0.000,0
1595393090.668,41.504,-35.156,-38.574,-20.020,0.000,0
1595393090.672,-84.961,-39.551,-37.109,-16.113,0.000,0
1595393090.676,-68.848,-36.621,-32.227,-20.508,0.000,0
1595393090.680,65.430,-33.691,-29.785,-26.367,0.000,0
1595393090.683,78.125,-40.527,-37.109,-17.090,0.000,0
1595393090.687,-52.734,-42.969,-41.992,-5.859,0.000,0
1595393090.691,-82.520,-33.691,-37.598,-5.371,0.000,0
1595393090.695,40.527,-29.297,-26.367,-6.348,0.000,0
1595393090.699,86.426,-30.762,-28.809,-8.301,0.000,0
1595393090.703,-28.320,-25.879,-29.297,-7.324,0.000,0
1595393090.707,-106.445,-28.809,-33.203,0.977,0.000,0
1595393090.711,-17.578,-31.250,-34.180,6.836,0.000,0
1595393090.715,75.684,-27.344,-28.320,-2.930,0.000,0
1595393090.719,-3.906,-23.438,-22.461,-8.301,0.000,0
1595393090.723,-119.629,-25.879,-36.133,-0.488,0.000,0
1595393090.726,-66.895,-36.621,-39.062,-3.906,0.000,0
1595393090.730,60.059,-34.668,-24.902,-4.395,0.000,0
1595393090.734,25.391,-30.273,-20.020,-7.812,0.000,0
1595393090.738,-101.562,-29.297,-23.438,-11.230,0.000,0
1595393090.742,-91.309,-34.180,-39.551,-11.230,0.000,0
1595393090.746,30.762,-38.086,-29.785,-8.789,0.000,0
1595393090.750,62.500,-34.668,-18.555,-4.883,0.000,0
1595393090.754,-52.734,-37.598,-27.344,-9.277,0.000,0
1595393090.758,-104.980,-41.504,-38.574,-10.254,0.000,0
1595393090.762,22.461,-37.109,-27.344,-11.230,0.000,0
1595393090.766,115.234,-27.832,-23.926,-3.906,0.000,0
1595393090.769,-4.395,-31.738,-23.438,-4.883,0.000,0
1595393090.773,-122.559,-39.551,-33.691,-11.230,0.000,0
1595393090.777,-28.809,-39.551,-25.879,-7.324,0.000,0
1595393090.781,92.285,-37.109,-10.254,-0.977,0.000,0
1595393090.785,23.926,-41.016,-14.160,15.137,0.000,0
1595393090.789,-103.516,-48.340,-24.902,26.855,0.000,0
1595393090.793,-68.359,-46.387,-16.602,20.020,0.000,0
1595393090.797,59.082,-42.480,-5.371,7.324,0.000,0
1595393090.801,48.340,-40.527,-17.090,7.324,0.000,0
1595393090.805,-82.031,-38.574,-23.926,17.090,0.000,0
1595393090.808,-88.867,-43.457,-19.531,15.625,0.000,0
1595393090.812,40.039,-43.457,-16.113,1.465,0.000,0
1595393090.816,78.125,-41.504,-25.879,5.371,0.000,0
1595393090.820,-32.715,-48.828,-24.902,11.230,0.000,0
1595393090.824,-97.656,-51.270,-23.438,2.441,0.000,0
1595393090.828,18.066,-45.898,-18.066,7.324,0.000,0
1595393090.832,102.051,-45.410,-20.508,10.742,0.000,0
1595393090.836,-18.066,-50.293,-28.320,5.859,0.000,0
1595393090.840,-124.023,-47.852,-29.297,5.371,0.000,0
1595393090.844,-38.086,-46.387,-21.973,-4.883,0.000,0
1595393090.848,71.777,-44.922,-15.137,-9.277,0.000,0
1595393090.851,3.418,-37.598,-11.719,1.953,0.000,0
1595393090.855,-126.465,-36.133,-14.160,10.742,0.000,0
1595393090.859,-85.938,-41.016,-21.973,-3.906,0.000,0
1595393090.863,50.781,-44.434,-24.414,-19.043,0.000,0
1595393090.867,48.828,-41.504,-21.484,-9.766,0.000,0
1595393090.871,-75.684,-38.574,-20.996,-5.859,0.000,0
1595393090.875,-95.215,-39.551,-32.715,-10.742,0.000,0
1595393090.879,43.457,-36.133,-29.785,-6.348,0.000,0
1595393090.883,94.727,-38.574,-23.926,-9.277,0.000,0
1595393090.887,-25.391,-42.969,-24.414,-9.277,0.000,0
1595393090.891,-92.773,-42.969,-29.297,-0.977,0.000,0
1595393090.894,3.906,-47.363,-27.832,2.441,0.000,0
1595393090.898,92.773,-40.527,-13.184,2.930,0.000,0
1595393090.902,13.184,-36.133,-11.230,12.207,0.000,0
1595393090.906,-89.355,-37.598,-25.391,5.371,0.000,0
1595393090.910,-17.578,-37.598,-25.391,-8.789,0.000,0
1595393090.914,102.539,-39.062,-16.602,-6.836,0.000,0
1595393090.918,52.246,-35.645,-19.531,3.906,0.000,0
1595393090.922,-69.824,-32.227,-22.461,12.695,0.000,0
1595393090.926,-46.875,-33.691,-14.160,0.977,0.000,0
1595393090.930,77.637,-39.062,-8.301,-5.371,0.000,0
1595393090.933,79.102,-39.062,-14.160,-1.953,0.000,0
1595393090.937,-49.316,-41.016,-20.508,-0.488,0.000,0
1595393090.941,-81.543,-43.457,-28.320,-3.906,0.000,0
1595393090.945,38.574,-36.621,-22.949,-20.996,0.000,0
1595393090.949,93.750,-39.062,-27.832,-19.531,0.000,0
1595393090.953,-21.973,-43.457,-41.016,3.906,0.000,0
1595393090.957,-96.680,-40.039,-40.039,0.488,0.000,0
1595393090.961,11.230,-37.109,-17.578,-10.254,0.000,0
1595393090.965,113.281,-37.109,-15.625,-4.883,0.000,0
1595393090.969,32.227,-41.504,-24.414,0.488,0.000,0
1595393090.973,-81.055,-42.969,-27.344,1.953,0.000,0
1595393090.976,-23.926,-39.551,-23.438,-0.488,0.000,0
1595393090.980,95.703,-34.668,-17.578,-3.906,0.000,2
1595393090.984,63.477,-39.062,-29.297,-4.883,0.000,0
1595393090.988,-65.918,-40.039,-36.133,-9.766,0.000,0
1595393090.992,-62.012,-38.086,-29.785,-17.578,0.000,0
1595393090.996,73.242,-38.086,-19.043,-13.184,0.000,0
1595393091.000,87.402,-38.086,-20.996,-7.324,0.000,0
1595393091.004,-46.875,-36.621,-20.508,-13.672,0.000,0
1595393091.008,-82.520,-35.156,-23.926,-12.695,0.000,0
1595393091.012,40.039,-35.156,-16.113,-4.883,0.000,0
1595393091.016,96.680,-39.062,-18.555,-6.348,0.000,0
1595393091.019,-25.879,-38.086,-23.438,-8.789,0.000,0
1595393091.023,-109.863,-36.133,-25.391,-1.465,0.000,0
1595393091.027,-9.277,-36.621,-18.066,3.906,0.000,0
1595393091.031,92.285,-35.156,-15.625,6.348,0.000,0
1595393091.035,18.066,-36.621,-18.066,6.348,0.000,0
1595393091.039,-96.191,-36.133,-19.531,3.906,0.000,0
1595393091.043,-41.504,-34.180,-25.879,5.859,0.000,0
1595393091.047,75.195,-32.715,-14.160,-1.465,0.000,0
1595393091.051,34.668,-38.574,-13.672,-14.648,0.000,0
1595393091.055,-95.215,-43.457,-27.832,-9.277,0.000,0
1595393091.058,-96.680,-40.039,-35.156,-0.488,0.000,0
1595393091.062,34.668,-37.109,-20.020,-1.465,0.000,0
1595393091.066,62.500,-37.109,-20.996,-11.230,0.000,0
1595393091.070,-71.777,-34.180,-29.785,-12.207,0.000,0
1595393091.074,-124.023,-32.715,-31.250,-6.836,0.000,0
1595393091.078,-9.277,-34.668,-22.461,-15.137,0.000,0
1595393091.082,54.199,-38.574,-24.414,-19.531,0.000,0
1595393091.086,-51.758,-43.945,-34.668,-11.230,0.000,0
1595393091.090,-143.066,-43.457,-40.527,-7.812,0.000,0
1595393091.094,-55.664,-36.621,-33.691,-10.254,0.000,0
1595393091.098,55.176,-37.109,-29.785,-4.883,0.000,0
1595393091.101,-5.859,-40.527,-32.715,-3.906,0.000,0
1595393091.105,-127.930,-37.109,-34.180,-12.695,0.000,0
1595393091.109,-90.820,-34.180,-25.391,-12.207,0.000,0
1595393091.113,43.945,-34.180,-17.090,-7.324,0.000,0
1595393091.117,37.109,-33.203,-21.973,-5.371,0.000,0
1595393091.121,-101.074,-33.691,-29.785,-9.766,0.000,0
1595393091.125,-114.258,-38.086,-28.320,-5.371,0.000,0
1595393091.129,19.531,-36.133,-21.484,0.977,0.000,0
1595393091.133,58.105,-28.809,-31.250,1.953,0.000,0
1595393091.137,-63.965,-30.762,-34.668,0.000,0.000,0
1595393091.141,-123.047,-32.227,-36.621,1.953,0.000,0
1595393091.144,-5.859,-30.762,-30.762,1.953,0.000,0
1595393091.148,79.590,-33.691,-31.250,-4.883,0.000,0
1595393091.152,-9.766,-37.109,-32.715,-12.695,0.000,0
1595393091.156,-101.562,-35.156,-30.273,-11.230,0.000,0
1595393091.160,-19.531,-34.180,-24.902,-2.930,0.000,0
1595393091.164,98.633,-34.180,-31.250,-8.789,0.000,0
1595393091.168,46.387,-31.738,-25.879,-4.883,0.000,0
1595393091.172,-80.078,-34.668,-23.438,-0.488,0.000,0
1595393091.176,-56.641,-34.668,-38.086,-10.742,0.000,0
1595393091.180,75.684,-28.320,-32.715,-15.625,0.000,0
1595393091.183,77.148,-27.344,-21.973,-13.184,0.000,0
1595393091.187,-51.758,-33.203,-29.297,-11.230,0.000,0
1595393091.191,-69.336,-34.180,-41.504,-6.836,0.000,0
1595393091.195,62.500,-29.785,-27.344,-3.906,0.000,0
1595393091.199,108.398,-28.320,-20.020,-6.836,0.000,0
1595393091.203,-19.531,-29.297,-27.344,-6.348,0.000,0
1595393091.207,-92.773,-30.762,-39.551,-7.324,0.000,0
1595393091.211,13.184,-25.391,-34.668,-8.789,0.000,0
1595393091.215,100.098,-20.020,-18.555,-13.672,0.000,0
1595393091.219,6.836,-30.762,-27.344,-17.090,0.000,0
1595393091.223,-102.539,-35.156,-44.434,-13.672,0.000,0
1595393091.226,-40.039,-33.203,-34.668,-11.230,0.000,0
1595393091.230,75.684,-35.645,-22.949,-19.531,0.000,0
1595393091.234,32.715,-37.598,-28.320,-27.344,0.000,0
1595393091.238,-82.031,-38.574,-41.504,-20.020,0.000,0
1595393091.242,-56.641,-37.109,-33.691,-13.184,0.000,0
1595393091.246,64.941,-36.133,-15.625,-18.066,0.000,0
1595393091.250,68.848,-32.715,-26.855,-14.160,0.000,0
1595393091.254,-52.246,-30.273,-40.039,-6.348,0.000,0
1595393091.258,-84.473,-37.598,-42.480,-16.602,0.000,0
1595393091.262,35.645,-41.504,-38.574,-26.855,0.000,0
1595393091.266,97.656,-39.062,-37.598,-18.555,0.000,0
1595393091.269,-15.137,-36.621,-37.109,-7.324,0.000,0
1595393091.273,-89.355,-34.180,-37.598,-12.695,0.000,0
1595393091.277,18.066,-33.203,-29.297,-19.043,0.000,0
1595393091.281,123.047,-31.738,-27.832,-15.137,0.000,0
1595393091.285,48.828,-30.273,-33.203,-10.742,0.000,0
1595393091.289,-58.594,-29.785,-34.180,-9.766,0.000,0
1595393091.293,-3.906,-31.250,-25.391,-13.672,0.000,0
1595393091.297,118.164,-26.855,-20.508,-3.418,0.000,0
1595393091.301,82.520,-28.320,-31.250,-0.488,0.000,0
1595393091.305,-53.711,-33.691,-25.391,-14.648,0.000,0
1595393091.308,-56.641,-33.691,-23.438,-20.508,0.000,0
1595393091.312,62.500,-33.691,-28.320,-25.879,0.000,0
1595393091.316,84.961,-33.203,-37.109,-25.879,0.000,0
1595393091.320,-41.504,-34.668,-36.133,-19.531,0.000,0
1595393091.324,-88.379,-35.156,-37.109,-21.484,0.000,0
1595393091.328,42.480,-31.250,-31.250,-16.113,0.000,0
1595393091.332,115.723,-27.344,-27.344,-11.230,0.000,0
1595393091.336,-2.930,-26.855,-25.879,-7.324,0.000,0
1595393091.340,-105.957,-36.133,-35.156,-7.324,0.000,0
1595393091.344,-22.949,-37.598,-35.645,-10.742,0.000,0
1595393091.348,81.543,-34.180,-27.344,-19.531,0.000,0
1595393091.351,9.277,-39.551,-32.227,-21.484,0.000,0
1595393091.355,-115.723,-46.875,-41.504,-10.742,0.000,0
1595393091.359,-69.824,-43.457,-41.016,-5.859,0.000,0
1595393091.363,65.430,-36.621,-27.832,-18.066,0.000,0
1595393091.367,51.758,-37.109,-23.438,-13.672,0.000,0
1595393091.371,-74.219,-34.668,-30.273,0.977,0.000,0
1595393091.375,-83.496,-35.156,-41.992,-5.859,0.000,0
1595393091.379,41.992,-33.203,-34.668,-12.207,0.000,0
1595393091.383,83.496,-33.691,-30.273,-12.695,0.000,0
1595393091.387,-35.645,-37.109,-38.086,-12.695,0.000,0
1595393091.391,-98.145,-42.480,-50.293,-14.648,0.000,0
1595393091.394,18.066,-39.062,-28.320,-18.555,0.000,0
1595393091.398,105.957,-36.133,-19.043,-15.625,0.000,0
1595393091.402,14.160,-39.551,-27.344,-8.301,0.000,0
1595393091.406,-81.543,-38.574,-32.715,-2.441,0.000,0
1595393091.410,-10.742,-34.180,-31.738,-7.324,0.000,0
1595393091.414,103.516,-26.367,-25.879,-11.719,0.000,0
1595393091.418,44.434,-23.438,-37.109,-11.719,0.000,0
1595393091.422,-78.125,-23.438,-38.086,-9.766,0.000,0
1595393091.426,-37.109,-20.996,-27.344,-9.277,0.000,0
1595393091.430,92.285,-21.973,-21.973,-9.766,0.000,0
1595393091.433,84.961,-20.020,-28.320,1.465,0.000,0
1595393091.437,-47.363,-23.926,-22.949,-1.953,0.000,0
1595393091.441,-62.500,-31.738,-24.902,-18.555,0.000,0
1595393091.445,63.477,-32.715,-24.902,-18.555,0.000,0
1595393091.449,95.215,-33.203,-33.691,-10.742,0.000,0
1595393091.453,-24.414,-37.598,-43.945,-14.648,0.000,0
1595393091.457,-85.449,-37.598,-47.363,-20.020,0.000,0
1595393091.461,22.949,-34.180,-40.039,-17.090,0.000,0
1595393091.465,104.980,-34.180,-38.574,-13.672,0.000,0
1595393091.469,13.184,-38.574,-40.039,-12.695,0.000,0
1595393091.473,-89.844,-39.062,-49.316,-11.719,0.000,0
1595393091.476,-23.926,-36.133,-45.410,-13.672,0.000,0
1595393091.480,92.773,-33.203,-31.738,-10.742,0.000,0
1595393091.484,44.922,-33.691,-37.598,-11.719,0.000,0
1595393091.488,-90.332,-40.039,-47.852,-12.695,0.000,0
1595393091.492,-64.453,-45.898,-49.805,-2.930,0.000,0
1595393091.496,75.684,-42.480,-30.273,-12.695,0.000,0
1595393091.500,76.660,-30.762,-33.691,-20.996,0.000,0
1595393091.504,-53.223,-26.855,-45.898,-16.602,0.000,0
1595393091.508,-80.078,-31.738,-44.922,-5.371,0.000,0
1595393091.512,36.621,-32.227,-32.715,-11.230,0.000,0
1595393091.516,83.496,-36.133,-31.738,-18.066,0.000,0
1595393091.519,-22.461,-42.969,-42.480,-14.648,0.000,0
1595393091.523,-94.727,-40.527,-49.805,-12.695,0.000,0
1595393091.527,2.930,-36.133,-35.156,-11.719,0.000,0
1595393091.531,102.539,-37.598,-19.043,-11.719,0.000,0
1595393091.535,15.625,-42.480,-27.832,-10.254,0.000,0
1595393091.539,-104.004,-46.875,-45.410,-0.488,0.000,0
1595393091.543,-30.762,-40.527,-25.879,-1.953,0.000,0
1595393091.547,98.633,-32.715,-11.719,-0.977,0.000,0
1595393091.551,62.012,-28.809,-24.414,3.418,0.000,0
1595393091.555,-62.988,-27.344,-27.832,0.488,0.000,0
1595393091.558,-51.270,-28.320,-30.273,-4.395,0.000,0
1595393091.562,72.266,-27.344,-24.902,-15.137,0.000,0
1595393091.566,89.355,-29.297,-25.879,-11.230,0.000,0
1595393091.570,-41.504,-35.156,-37.109,-6.348,0.000,0
1595393091.574,-81.055,-38.086,-37.109,-7.812,0.000,0
1595393091.578,40.039,-36.621,-26.855,-14.160,0.000,0
1595393091.582,98.633,-33.203,-29.785,-18.066,0.000,0
1595393091.586,-11.230,-30.762,-29.297,-9.277,0.000,0
1595393091.590,-97.168,-27.344,-32.715,-7.324,0.000,0
1595393091.594,-10.742,-23.926,-33.203,-12.695,0.000,0
1595393091.598,88.379,-23.926,-38.086,-9.277,0.000,0
1595393091.601,16.602,-28.320,-39.062,-13.672,0.000,0
1595393091.605,-94.238,-29.297,-36.133,-13.672,0.000,0
1595393091.609,-48.340,-24.414,-34.180,-8.789,0.000,0
1595393091.613,74.707,-20.508,-32.227,-9.277,0.000,0
1595393091.617,57.129,-24.902,-29.297,-4.395,0.000,0
1595393091.621,-75.195,-31.738,-30.273,-1.465,0.000,0
1595393091.625,-78.613,-33.691,-37.598,-8.301,0.000,0
1595393091.629,51.270,-33.203,-36.621,-3.906,0.000,0
1595393091.633,82.031,-30.762,-28.320,0.977,0.000,0
1595393091.637,-41.504,-31.738,-30.762,-1.953,0.000,0
1595393091.641,-89.844,-31.738,-41.504,-2.930,0.000,0
1595393091.644,26.367,-29.297,-28.320,-13.184,0.000,0
1595393091.648,97.168,-22.949,-22.461,-13.184,0.000,0
1595393091.652,-6.836,-26.855,-31.250,-1.953,0.000,0
1595393091.656,-105.469,-36.133,-43.457,-5.371,0.000,0
1595393091.660,-21.484,-33.691,-40.039,-14.160,0.000,0
1595393091.664,101.562,-26.855,-27.832,-3.906,0.000,0
1595393091.668,42.480,-28.320,-28.809,1.953,0.000,0
1595393091.672,-87.891,-34.180,-40.039,-4.883,0.000,0
1595393091.676,-55.176,-39.062,-39.062,-3.418,0.000,0
1595393091.680,71.289,-37.598,-29.297,1.953,0.000,0
1595393091.683,54.199,-36.621,-36.621,-0.488,0.000,0
1595393091.687,-78.125,-39.551,-45.410,-1.953,0.000,0
1595393091.691,-87.891,-32.227,-41.016,-1.465,0.000,0
1595393091.695,45.898,-28.809,-25.879,1.465,0.000,0
1595393091.699,94.727,-34.668,-26.367,8.301,0.000,0
1595393091.703,-28.809,-41.016,-33.691,5.371,0.000,0
1595393091.707,-99.609,-43.945,-39.551,-6.836,0.000,0
1595393091.711,12.207,-38.574,-25.391,-2.930,0.000,0
1595393091.715,97.656,-39.062,-25.391,-4.395,0.000,0
1595393091.719,-1.465,-42.969,-42.969,-5.859,0.000,0
1595393091.723,-106.934,-39.551,-39.551,-0.488,0.000,0
1595393091.726,-26.367,-34.180,-24.902,-5.859,0.000,0
1595393091.730,88.867,-31.738,-27.832,-0.977,0.000,0
1595393091.734,29.785,-38.086,-34.668,4.395,0.000,0
1595393091.738,-91.309,-45.898,-38.086,-1.953,0.000,0
1595393091.742,-71.289,-42.480,-36.621,-2.441,0.000,0
1595393091.746,57.617,-40.527,-26.855,-0.488,0.000,0
1595393091.750,61.523,-40.527,-29.785,-2.930,0.000,0
1595393091.754,-74.707,-37.598,-34.668,2.441,0.000,0
1595393091.758,-100.586,-37.598,-39.062,6.348,0.000,0
1595393091.762,23.926,-34.180,-30.762,6.836,0.000,0
1595393091.766,72.754,-29.785,-25.391,2.441,0.000,0
1595393091.769,-41.504,-31.250,-26.367,0.488,0.000,0
1595393091.773,-111.816,-38.086,-32.715,8.789,0.000,0
1595393091.777,-5.371,-41.016,-35.645,-1.465,0.000,0
1595393091.781,92.285,-38.086,-41.504,-8.789,0.000,0
1595393091.785,3.418,-37.598,-33.691,-5.859,0.000,0
1595393091.789,-104.004,-35.156,-34.180,-3.906,0.000,0
1595393091.793,-32.227,-38.574,-35.645,-8.301,0.000,0
1595393091.797,88.867,-40.039,-26.855,-13.672,0.000,0
1595393091.801,48.340,-33.203,-31.738,-14.160,0.000,0
1595393091.805,-79.590,-34.668,-43.457,-13.184,0.000,0
1595393091.808,-59.570,-35.645,-40.527,-9.277,0.000,0
1595393091.812,70.312,-27.832,-23.926,-17.578,0.000,0
1595393091.816,79.590,-27.832,-25.391,-16.602,0.000,0
1595393091.820,-42.969,-30.273,-33.203,-6.348,0.000,0
1595393091.824,-75.684,-29.785,-45.898,-8.301,0.000,0
1595393091.828,37.598,-33.691,-31.738,-13.672,0.000,0
1595393091.832,94.238,-36.133,-29.297,-14.648,0.000,0
1595393091.836,-8.789,-29.785,-31.250,-8.789,0.000,0
1595393091.840,-79.590,-25.879,-27.832,-3.418,0.000,0
1595393091.844,22.949,-26.855,-21.484,-4.395,0.000,0
1595393091.848,117.676,-25.391,-20.996,-6.836,0.000,0
1595393091.851,39.062,-23.926,-25.391,0.977,0.000,0
1595393091.855,-76.172,-28.320,-26.855,2.930,0.000,0
1595393091.859,-26.855,-34.180,-20.508,-14.160,0.000,0
1595393091.863,95.215,-39.062,-13.672,-12.695,0.000,0
1595393091.867,53.223,-43.945,-27.344,-11.230,0.000,0
1595393091.871,-78.125,-41.992,-30.762,-20.996,0.000,0
1595393091.875,-75.195,-32.715,-28.320,-17.578,0.000,0
1595393091.879,41.016,-29.297,-29.297,-17.090,0.000,0
1595393091.883,55.664,-31.738,-41.992,-16.113,0.000,0
1595393091.887,-62.988,-32.227,-44.922,-12.207,0.000,0
1595393091.891,-99.609,-33.203,-37.598,-11.719,0.000,0
1595393091.894,15.137,-35.645,-30.273,-9.766,0.000,0
1595393091.898,81.055,-36.621,-33.203,-3.418,0.000,0
1595393091.902,-24.414,-36.133,-23.926,-9.277,0.000,0
1595393091.906,-114.746,-35.156,-21.484,-16.113,0.000,0
1595393091.910,-23.438,-38.086,-26.855,-19.043,0.000,0
1595393091.914,84.961,-39.551,-27.344,-24.414,0.000,0
1595393091.918,15.137,-43.457,-31.738,-22.949,0.000,0
1595393091.922,-104.004,-47.852,-38.086,-21.973,0.000,0
1595393091.926,-57.617,-47.363,-38.574,-20.996,0.000,0
1595393091.930,67.871,-42.969,-27.344,-19.531,0.000,0
1595393091.933,44.434,-41.504,-26.855,-13.184,0.000,0
1595393091.937,-82.520,-41.992,-32.715,-7.324,0.000,0
1595393091.941,-92.773,-48.340,-40.527,-13.672,0.000,0
1595393091.945,35.156,-48.340,-35.156,-18.555,0.000,0
1595393091.949,65.918,-44.922,-28.320,-12.207,0.000,0
1595393091.953,-54.199,-41.504,-31.250,-9.277,0.000,0
1595393091.957,-103.516,-42.969,-42.480,-22.461,0.000,0
1595393091.961,13.184,-40.527,-33.203,-20.020,0.000,0
1595393091.965,98.145,-30.273,-25.391,-12.207,0.000,0
1595393091.969,-4.395,-33.203,-29.785,-15.625,0.000,0
1595393091.973,-108.398,-36.621,-41.504,-17.578,0.000,0
1595393091.976,-16.602,-26.367,-31.738,-15.625,0.000,0
1595393091.980,111.816,-23.438,-17.578,-4.395,0.000,0
1595393091.984,54.199,-31.738,-21.484,1.465,0.000,0
1595393091.988,-84.473,-37.598,-31.250,-0.977,0.000,0
1595393091.992,-57.129,-35.156,-20.996,0.977,0.000,0
1595393091.996,83.496,-32.715,-5.859,4.395,0.000,0
1595393092.000,77.637,-30.762,-15.137,-3.906,0.000,0
1595393092.004,-64.453,-31.250,-29.297,-4.395,0.000,0
1595393092.008,-81.543,-34.180,-25.391,-13.184,0.000,0
1595393092.012,45.410,-31.250,-11.230,-28.320,0.000,0
1595393092.016,83.008,-26.855,-13.672,-22.461,0.000,0
1595393092.019,-39.062,-30.273,-18.555,-14.648,0.000,0
1595393092.023,-106.934,-37.598,-30.273,-19.043,0.000,0
1595393092.027,2.441,-34.180,-20.996,-17.578,0.000,0
1595393092.031,84.473,-31.738,-23.438,-15.625,0.000,0
1595393092.035,-7.812,-35.156,-34.668,-18.066,0.000,0
1595393092.039,-114.746,-34.180,-31.738,-17.090,0.000,0
1595393092.043,-51.758,-31.250,-21.973,-12.207,0.000,0
1595393092.047,74.219,-28.809,-19.531,-0.977,0.000,0
1595393092.051,31.250,-30.762,-27.832,1.465,0.000,0
1595393092.055,-97.656,-33.691,-27.832,-8.789,0.000,0
1595393092.058,-75.195,-39.062,-34.180,-9.766,0.000,0
1595393092.062,59.082,-39.062,-32.227,-10.254,0.000,0
1595393092.066,64.453,-39.062,-26.855,-10.254,0.000,0
1595393092.070,-69.336,-42.969,-25.391,-4.883,0.000,0
1595393092.074,-110.840,-41.016,-28.809,-14.160,0.000,0
1595393092.078,8.301,-35.156,-23.926,-18.066,0.000,0
1595393092.082,51.270,-39.062,-29.297,-15.625,0.000,0
1595393092.086,-54.688,-44.434,-32.227,-4.883,0.000,0
1595393092.090,-120.605,-49.316,-39.062,0.977,0.000,0
1595393092.094,-21.973,-50.293,-40.527,-9.766,0.000,0
1595393092.098,78.125,-42.480,-34.668,-6.836,0.000,0
1595393092.101,5.859,-42.969,-39.551,-3.418,0.000,0
1595393092.105,-96.191,-48.828,-47.852,-2.930,0.000,0
1595393092.109,-42.480,-50.293,-49.316,-1.465,0.000,0
1595393092.113,77.637,-43.457,-32.227,-9.766,0.000,0
1595393092.117,50.293,-38.086,-29.297,-4.883,0.000,0
1595393092.121,-81.543,-43.945,-36.133,-4.395,0.000,0
1595393092.125,-78.613,-42.480,-34.668,-16.113,0.000,0
1595393092.129,51.270,-36.133,-26.367,-18.066,0.000,0
1595393092.133,70.312,-33.691,-24.414,-15.625,0.000,0
1595393092.137,-58.105,-35.645,-29.785,-1.953,0.000,0
1595393092.141,-96.191,-34.180,-35.156,3.418,0.000,0
1595393092.144,22.461,-27.344,-25.879,-4.883,0.000,0
1595393092.148,81.055,-29.297,-23.438,-2.930,0.000,0
1595393092.152,-30.273,-40.039,-31.738,0.000,0.000,0
1595393092.156,-122.559,-42.480,-39.062,0.977,0.000,0
1595393092.160,-27.832,-34.180,-19.531,-1.953,0.000,0
1595393092.164,80.566,-30.273,-9.766,-3.418,0.000,0
1595393092.168,11.230,-28.809,-10.254,1.953,0.000,0
1595393092.172,-103.516,-33.203,-18.066,-5.859,0.000,0
1595393092.176,-51.758,-34.668,-27.344,-13.184,0.000,0
1595393092.180,85.449,-30.273,-21.484,-7.812,0.000,0
1595393092.183,62.988,-31.738,-30.762,-1.465,0.000,0
1595393092.187,-63.477,-34.180,-33.203,-12.207,0.000,0
1595393092.191,-52.246,-34.668,-20.996,-17.090,0.000,0
1595393092.195,79.102,-34.668,-16.113,-14.160,0.000,0
1595393092.199,101.562,-33.203,-24.414,-13.672,0.000,0
1595393092.203,-23.438,-34.180,-23.438,-6.348,0.000,0
1595393092.207,-71.777,-33.691,-21.973,-8.301,0.000,0
1595393092.211,42.480,-31.250,-20.508,-13.672,0.000,0
1595393092.215,111.328,-27.832,-22.949,-5.371,0.000,0
1595393092.219,7.812,-32.715,-28.809,-2.441,0.000,0
1595393092.223,-86.426,-34.668,-45.410,-18.555,0.000,0
1595393092.226,-3.418,-30.762,-39.551,-20.508,0.000,0
1595393092.230,102.051,-32.227,-31.738,-10.742,0.000,0
1595393092.234,43.945,-29.785,-25.879,-11.719,0.000,0
1595393092.238,-74.219,-30.762,-31.250,-12.207,0.000,0
1595393092.242,-36.621,-30.762,-33.203,-5.859,0.000,0
1595393092.246,91.797,-29.297,-18.555,-7.812,0.000,0
1595393092.250,76.172,-37.109,-28.320,-12.695,0.000,0
1595393092.254,-48.340,-39.551,-38.574,-2.441,0.000,0
1595393092.258,-67.871,-37.109,-36.133,-2.441,0.000,0
1595393092.262,60.547,-28.320,-19.043,-3.906,0.000,0
1595393092.266,104.492,-23.926,-20.996,7.324,0.000,0
1595393092.269,-22.949,-28.320,-38.574,4.395,0.000,0
1595393092.273,-82.031,-28.320,-40.527,-1.953,0.000,0
1595393092.277,29.785,-29.297,-27.344,-7.324,0.000,0
1595393092.281,103.027,-27.832,-22.461,-9.277,0.000,0
1595393092.285,1.465,-29.297,-27.832,0.000,0.000,0
1595393092.289,-96.680,-35.156,-45.410,1.465,0.000,0
1595393092.293,-20.508,-34.180,-37.109,-7.812,0.000,0
1595393092.297,90.332,-34.180,-20.508,-17.578,0.000,0
1595393092.301,34.668,-36.621,-33.203,-14.160,0.000,0
1595393092.305,-83.008,-40.039,-43.945,-12.207,0.000,0
1595393092.308,-48.340,-37.598,-34.668,-10.742,0.000,0
1595393092.312,83.984,-27.832,-22.949,2.441,0.000,0
1595393092.316,78.613,-29.785,-26.367,4.883,0.000,0
1595393092.320,-53.223,-37.598,-31.250,-3.906,0.000,0
1595393092.324,-82.520,-36.621,-31.738,-17.578,0.000,0
1595393092.328,38.574,-31.250,-26.367,-20.996,0.000,0
1595393092.332,88.379,-28.809,-31.250,-15.137,0.000,0
1595393092.336,-32.715,-26.855,-36.133,-13.672,0.000,0
1595393092.340,-103.516,-26.367,-41.992,-12.207,0.000,0
1595393092.344,13.184,-21.484,-36.621,-12.207,0.000,0
1595393092.348,114.258,-20.020,-39.062,-14.160,0.000,0
1595393092.351,22.461,-24.902,-42.480,-6.836,0.000,0
1595393092.355,-90.332,-25.391,-34.668,-2.441,0.000,0
1595393092.359,-17.090,-24.414,-26.367,-2.441,0.000,0
1595393092.363,104.004,-22.949,-28.809,-5.859,0.000,0
1595393092.367,53.223,-22.461,-33.691,-9.277,0.000,0
1595393092.371,-75.684,-23.438,-29.785,-7.324,0.000,0
1595393092.375,-59.082,-25.879,-31.250,-4.883,0.000,0
1595393092.379,74.219,-22.949,-29.785,4.883,0.000,0
1595393092.383,86.914,-20.508,-24.902,-5.859,0.000,0
1595393092.387,-54.199,-28.809,-31.250,-17.578,0.000,0
1595393092.391,-88.379,-31.738,-40.039,-9.277,0.000,0
1595393092.394,36.133,-28.809,-36.621,-6.836,0.000,0
1595393092.398,86.914,-29.785,-24.902,-18.066,0.000,0
1595393092.402,-19.043,-35.156,-30.762,-14.160,0.000,0
1595393092.406,-93.750,-37.598,-42.480,5.371,0.000,0
1595393092.410,6.348,-31.738,-34.180,-1.465,0.000,0
1595393092.414,101.074,-29.785,-38.574,-22.461,0.000,0
1595393092.418,13.672,-30.273,-46.387,-22.461,0.000,0
1595393092.422,-97.656,-27.832,-44.922,-15.625,0.000,0
1595393092.426,-46.875,-32.227,-34.180,-8.789,0.000,0
1595393092.430,66.895,-35.645,-22.949,-5.371,0.000,0
1595393092.433,35.156,-35.156,-25.879,-11.230,0.000,0
1595393092.437,-94.727,-37.109,-36.621,-6.836,0.000,0
1595393092.441,-86.914,-35.156,-38.086,-4.883,0.000,0
1595393092.445,46.875,-31.250,-19.531,-9.277,0.000,0
1595393092.449,60.059,-30.762,-17.578,-2.441,0.000,0
1595393092.453,-72.266,-32.227,-29.785,6.348,0.000,0
1595393092.457,-115.234,-34.668,-36.133,7.324,0.000,0
1595393092.461,3.418,-31.250,-19.531,-5.371,0.000,0
1595393092.465,69.336,-32.227,-20.020,-8.301,0.000,0
1595393092.469,-40.039,-32.715,-20.996,-2.441,0.000,0
1595393092.473,-127.930,-29.785,-19.531,-5.859,0.000,0
1595393092.476,-28.320,-32.715,-18.555,-16.113,0.000,0
1595393092.480,79.590,-34.180,-13.672,-8.301,0.000,0
1595393092.484,4.883,-37.109,-21.484,7.812,0.000,0
1595393092.488,-106.934,-33.203,-20.508,6.836,0.000,0
1595393092.492,-58.594,-30.762,-15.625,-1.953,0.000,0
1595393092.496,62.012,-32.715,-16.602,-9.277,0.000,0
1595393092.500,47.363,-33.691,-26.855,-1.465,0.000,0
1595393092.504,-78.613,-35.156,-34.180,0.488,0.000,0
1595393092.508,-81.055,-33.203,-31.250,-6.348,0.000,0
1595393092.512,47.852,-35.156,-26.367,7.812,0.000,0
1595393092.516,82.520,-33.691,-29.785,16.113,0.000,0
1595393092.519,-42.480,-28.809,-19.531,4.883,0.000,0
1595393092.523,-105.469,-28.809,-22.461,2.441,0.000,0
1595393092.527,4.883,-30.273,-23.926,-3.418,0.000,0
1595393092.531,77.637,-28.809,-22.949,-11.719,0.000,0
1595393092.535,-19.043,-28.809,-25.879,-15.625,0.000,0
1595393092.539,-105.469,-27.832,-27.832,-16.113,0.000,0
1595393092.543,-34.668,-29.785,-25.391,-19.531,0.000,0
1595393092.547,70.801,-31.738,-14.648,-16.113,0.000,0
1595393092.551,23.438,-32.227,-18.555,-6.348,0.000,0
1595393092.555,-104.004,-32.715,-31.250,-3.418,0.000,0
1595393092.558,-71.777,-33.203,-36.621,-5.859,0.000,0
1595393092.562,61.035,-30.762,-19.531,-15.137,0.000,0
1595393092.566,60.547,-26.855,-15.137,-16.602,0.000,0
1595393092.570,-64.941,-29.297,-30.762,-6.836,0.000,0
1595393092.574,-78.613,-25.879,-29.297,-10.254,0.000,0
1595393092.578,61.035,-19.531,-14.160,-12.695,0.000,0
1595393092.582,106.445,-20.508,-20.020,-8.301,0.000,0
1595393092.586,-17.090,-23.438,-32.227,-9.766,0.000,0
1595393092.590,-82.031,-25.879,-36.621,-11.230,0.000,0
1595393092.594,17.090,-31.250,-22.461,-16.113,0.000,0
1595393092.598,100.586,-35.156,-22.949,-15.625,0.000,0
1595393092.601,4.883,-33.203,-31.738,-9.277,0.000,0
1595393092.605,-109.375,-31.738,-35.645,-8.789,0.000,0
1595393092.609,-38.574,-29.297,-20.020,-5.371,0.000,0
1595393092.613,82.031,-29.785,-12.207,-4.883,0.000,0
1595393092.617,26.367,-33.203,-25.391,-8.301,0.000,0
1595393092.621,-106.934,-34.668,-30.762,-6.836,0.000,0
1595393092.625,-85.938,-33.203,-28.320,-13.184,0.000,0
1595393092.629,35.156,-32.227,-24.414,-13.672,0.000,0
1595393092.633,22.949,-37.598,-28.809,-6.836,0.000,0
1595393092.637,-113.281,-40.039,-33.203,-6.836,0.000,0
1595393092.641,-139.160,-38.086,-32.715,-10.742,0.000,0
1595393092.644,-8.301,-36.133,-27.832,-9.766,0.000,0
1595393092.648,48.340,-30.762,-22.461,-1.465,0.000,0
1595393092.652,-77.148,-32.227,-17.578,-6.836,0.000,0
1595393092.656,-156.250,-34.180,-23.926,-7.812,0.000,0
1595393092.660,-50.781,-36.133,-20.020,-8.789,0.000,0
1595393092.664,32.227,-40.039,-25.879,-7.812,0.000,0
1595393092.668,-59.082,-37.109,-22.461,-4.395,0.000,0
1595393092.672,-161.621,-33.691,-21.484,-0.488,0.000,0
1595393092.676,-95.703,-32.715,-21.973,0.000,0.000,0
1595393092.680,29.785,-36.133,-20.020,-5.859,0.000,0
1595393092.683,-2.441,-38.574,-23.438,-5.371,0.000,0
1595393092.687,-127.930,-36.133,-36.621,-3.906,0.000,0
1595393092.691,-108.887,-33.691,-46.387,0.488,0.000,0
1595393092.695,11.719,-32.227,-33.203,-4.395,0.000,0
1595393092.699,25.879,-27.832,-22.949,4.883,0.000,0
1595393092.703,-103.027,-27.832,-21.484,10.254,0.000,0
1595393092.707,-145.020,-31.738,-35.156,-0.977,0.000,0
1595393092.711,-16.113,-35.156,-38.086,-4.883,0.000,0
1595393092.715,57.129,-35.645,-27.344,-9.766,0.000,0
1595393092.719,-53.223,-39.551,-29.297,-8.789,0.000,0
1595393092.723,-144.531,-45.898,-43.457,-1.953,0.000,0
1595393092.726,-51.270,-42.480,-37.109,-12.207,0.000,0
1595393092.730,46.875,-36.621,-25.391,-22.461,0.000,0
1595393092.734,-24.902,-36.133,-24.902,-15.137,0.000,0
1595393092.738,-141.113,-38.086,-33.691,-10.254,0.000,0
1595393092.742,-91.309,-31.738,-25.391,-10.742,0.000,0
1595393092.746,29.297,-31.738,-14.160,-10.742,0.000,0
1595393092.750,-3.418,-38.086,-24.902,-3.906,0.000,0
1595393092.754,-127.930,-39.062,-33.691,-8.301,0.000,0
1595393092.758,-117.188,-42.969,-30.762,-11.230,0.000,0
1595393092.762,26.855,-40.039,-19.043,-7.812,0.000,0
1595393092.766,62.012,-36.133,-25.391,-6.348,0.000,0
1595393092.769,-60.547,-43.457,-41.504,0.977,0.000,0
1595393092.773,-96.680,-43.945,-37.598,-1.953,0.000,0
1595393092.777,37.109,-36.621,-21.484,-7.324,0.000,0
1595393092.781,111.328,-39.062,-24.414,-7.324,0.000,0
1595393092.785,7.812,-39.062,-39.551,-6.836,0.000,0
1595393092.789,-79.102,-38.086,-46.875,-11.719,0.000,0
1595393092.793,8.301,-39.551,-39.551,-13.672,0.000,0
1595393092.797,121.094,-34.180,-33.203,0.000,0.000,0
1595393092.801,60.059,-31.738,-26.855,-1.953,0.000,0
1595393092.805,-66.406,-36.621,-30.762,-7.812,0.000,0
1595393092.808,-31.738,-38.086,-36.621,-9.277,0.000,0
1595393092.812,99.609,-33.691,-26.855,-4.883,0.000,0
1595393092.816,90.820,-28.320,-23.926,0.488,0.000,0
1595393092.820,-37.598,-31.250,-25.391,-3.906,0.000,0
1595393092.824,-57.617,-33.203,-31.738,-10.742,0.000,0
1595393092.828,61.523,-31.738,-32.715,-4.395,0.000,0
1595393092.832,97.168,-31.250,-29.785,0.000,0.000,0
1595393092.836,-28.320,-29.785,-24.414,-6.836,0.000,0
1595393092.840,-89.355,-32.227,-28.320,-4.395,0.000,0
1595393092.844,19.043,-37.598,-29.785,1.465,0.000,0
1595393092.848,100.586,-32.715,-21.484,-5.371,0.000,0
1595393092.851,11.230,-27.344,-19.531,-7.324,0.000,0
1595393092.855,-88.867,-27.344,-37.109,-3.418,0.000,0
1595393092.859,-10.742,-23.438,-35.156,-1.465,0.000,0
1595393092.863,99.121,-26.367,-22.949,-0.488,0.000,0
1595393092.867,36.133,-31.250,-31.250,-1.953,0.000,0
1595393092.871,-91.797,-36.133,-39.062,-5.859,0.000,0
1595393092.875,-63.477,-35.645,-37.598,-10.742,0.000,0
1595393092.879,69.336,-30.762,-31.738,-10.742,0.000,0
1595393092.883,71.289,-32.715,-31.250,-12.695,0.000,0
1595393092.887,-59.082,-36.133,-35.645,-9.277,0.000,0
1595393092.891,-89.844,-40.527,-42.969,-15.137,0.000,0
1595393092.894,34.668,-40.039,-29.297,-17.090,0.000,0
1595393092.898,87.891,-37.598,-30.273,-15.137,0.000,0
1595393092.902,-27.832,-41.504,-37.109,-10.742,0.000,0
1595393092.906,-102.539,-41.504,-39.551,-5.371,0.000,0
1595393092.910,-3.418,-39.551,-30.273,-6.836,0.000,0
1595393092.914,90.820,-35.156,-26.367,-0.977,0.000,0
1595393092.918,1.953,-32.227,-37.598,7.324,0.000,0
1595393092.922,-111.816,-34.668,-41.016,4.395,0.000,0
1595393092.926,-47.363,-37.109,-38.574,-3.418,0.000,0
1595393092.930,74.707,-39.062,-37.109,-9.766,0.000,0
1595393092.933,43.945,-34.668,-37.109,2.441,0.000,0
1595393092.937,-77.637,-27.344,-26.367,12.207,0.000,0
1595393092.941,-70.312,-28.320,-24.414,-5.859,0.000,0
1595393092.945,57.129,-31.738,-26.367,-14.648,0.000,0
1595393092.949,72.754,-32.715,-32.227,-4.883,0.000,0
1595393092.953,-60.059,-34.668,-30.762,2.930,0.000,0
1595393092.957,-96.680,-33.691,-27.832,4.883,0.000,0
1595393092.961,32.715,-35.645,-30.762,-1.465,0.000,0
1595393092.965,89.844,-36.621,-35.156,-0.488,0.000,0
1595393092.969,-27.832,-34.668,-25.879,0.000,0.000,0
1595393092.973,-106.445,-31.738,-31.738,0.977,0.000,0
1595393092.976,-15.137,-32.227,-33.203,2.441,0.000,0
1595393092.980,75.684,-37.109,-31.250,0.000,0.000,0
1595393092.984,-9.277,-39.062,-32.715,0.488,0.000,0
1595393092.988,-122.070,-34.668,-29.297,-0.977,0.000,0
1595393092.992,-58.105,-30.762,-29.785,-8.301,0.000,0
1595393092.996,69.336,-32.715,-23.926,-11.230,0.000,0
1595393093.000,40.527,-30.273,-20.996,-3.906,0.000,0
1595393093.004,-89.844,-31.250,-30.273,-3.418,0.000,0
1595393093.008,-85.449,-33.691,-35.645,-7.812,0.000,0
1595393093.012,40.527,-31.738,-25.391,-9.277,0.000,0
1595393093.016,53.711,-28.320,-20.508,-6.348,0.000,0
1595393093.019,-82.031,-28.809,-30.762,-0.488,0.000,0
1595393093.023,-129.395,-32.227,-43.945,-8.789,0.000,0
1595393093.027,-7.812,-29.785,-25.879,-17.578,0.000,0
1595393093.031,66.895,-29.785,-21.484,-8.301,0.000,0
1595393093.035,-30.273,-35.645,-32.227,3.418,0.000,0
1595393093.039,-106.934,-40.039,-38.574,-2.441,0.000,0
1595393093.043,-3.906,-35.645,-27.344,-9.277,0.000,0
1595393093.047,107.910,-30.762,-21.484,-10.742,0.000,0
1595393093.051,36.133,-36.133,-41.992,-17.090,0.000,0
1595393093.055,-87.891,-40.039,-65.430,-10.254,0.000,0
1595393093.058,-48.340,-37.109,-51.270,-6.836,0.000,0
1595393093.062,75.195,-31.738,-36.621,-8.301,0.000,0
1595393093.066,50.293,-34.180,-50.293,-9.277,0.000,0
1595393093.070,-87.402,-37.598,-55.664,-6.348,0.000,0
1595393093.074,-92.285,-29.785,-40.039,-4.883,0.000,0
1595393093.078,32.227,-28.320,-30.762,-7.324,0.000,0
1595393093.082,63.477,-29.785,-36.133,-12.695,0.000,0
1595393093.086,-52.246,-25.391,-37.598,-9.766,0.000,0
1595393093.090,-103.027,-25.879,-39.062,-4.883,0.000,0
1595393093.094,17.578,-30.273,-30.273,-13.184,0.000,0
1595393093.098,91.797,-31.250,-30.762,-11.230,0.000,0
1595393093.101,-11.230,-32.715,-33.691,-5.859,0.000,0
1595393093.105,-98.633,-30.762,-33.203,-4.395,0.000,0
1595393093.109,-16.602,-28.809,-22.949,-2.441,0.000,0
1595393093.113,84.961,-27.832,-24.414,1.953,0.000,0
1595393093.117,37.598,-26.855,-27.344,5.859,0.000,0
1595393093.121,-77.148,-30.273,-27.832,0.977,0.000,0
1595393093.125,-51.270,-33.203,-27.344,0.977,0.000,0
1595393093.129,69.824,-36.133,-20.020,0.977,0.000,0
1595393093.133,57.129,-32.227,-16.113,-6.348,0.000,0
1595393093.137,-71.777,-27.832,-18.066,-2.930,0.000,0
1595393093.141,-88.379,-26.855,-24.414,-5.859,0.000,0
1595393093.144,33.203,-27.832,-20.996,-14.160,0.000,0
1595393093.148,71.777,-29.785,-18.066,-11.719,0.000,0
1595393093.152,-37.109,-30.273,-23.926,0.977,0.000,0
1595393093.156,-98.145,-34.668,-33.203,-2.930,0.000,0
1595393093.160,-0.977,-37.109,-26.855,-10.254,0.000,0
1595393093.164,85.938,-37.109,-27.344,-10.254,0.000,0
1595393093.168,-7.812,-41.504,-35.645,-21.973,0.000,0
1595393093.172,-123.535,-45.898,-46.875,-20.508,0.000,0
1595393093.176,-50.293,-42.969,-43.945,-7.812,0.000,0
1595393093.180,74.219,-36.133,-27.344,-17.578,0.000,0
1595393093.183,24.414,-33.203,-24.902,-20.020,0.000,0
1595393093.187,-95.703,-34.668,-31.738,-9.766,0.000,0
1595393093.191,-61.523,-36.621,-31.738,-8.301,0.000,0
1595393093.195,65.918,-35.645,-20.508,-2.930,0.000,0
1595393093.199,74.219,-34.180,-21.484,0.488,0.000,0
1595393093.203,-51.758,-41.016,-30.273,-4.395,0.000,0
1595393093.207,-88.379,-41.992,-35.156,-11.230,0.000,0
1595393093.211,38.086,-36.133,-31.738,-12.207,0.000,0
1595393093.215,96.191,-34.668,-31.738,-0.977,0.000,0
1595393093.219,-21.484,-35.645,-37.598,7.812,0.000,0
1595393093.223,-100.098,-37.598,-37.598,-1.465,0.000,0
1595393093.226,2.930,-40.527,-27.344,-7.812,0.000,0
1595393093.230,96.191,-37.598,-24.414,-0.488,0.000,0
1595393093.234,10.742,-36.621,-23.926,8.789,0.000,0
1595393093.238,-99.609,-37.598,-24.414,9.277,0.000,0
1595393093.242,-33.691,-38.086,-17.090,0.488,0.000,0
1595393093.246,91.797,-40.039,-14.648,-7.812,0.000,0
1595393093.250,50.781,-35.645,-16.113,-8.789,0.000,0
1595393093.254,-78.125,-39.062,-23.438,-8.301,0.000,0
1595393093.258,-53.711,-41.992,-30.273,-5.859,0.000,0
1595393093.262,77.637,-32.227,-24.902,-5.371,0.000,0
1595393093.266,81.543,-29.297,-26.855,-5.371,0.000,0
1595393093.269,-51.758,-34.668,-34.180,-6.348,0.000,0
1595393093.273,-91.797,-35.645,-33.203,-5.859,0.000,0
1595393093.277,34.668,-36.133,-19.043,-9.766,0.000,0
1595393093.281,100.586,-38.574,-21.484,-15.625,0.000,0
1595393093.285,-8.789,-41.504,-21.973,-5.859,0.000,0
1595393093.289,-94.238,-41.504,-20.996,-0.488,0.000,0
1595393093.293,-1.465,-36.133,-21.484,-4.883,0.000,0
1595393093.297,95.215,-35.645,-24.414,2.441,0.000,0
1595393093.301,20.996,-37.598,-27.832,1.465,0.000,0
1595393093.305,-90.332,-35.156,-39.062,-14.160,0.000,0
1595393093.308,-38.086,-37.109,-41.016,-13.184,0.000,0
1595393093.312,84.473,-34.668,-20.020,0.977,0.000,0
1595393093.316,61.523,-35.645,-16.602,2.441,0.000,0
1595393093.320,-52.734,-37.109,-22.461,-2.930,0.000,0
1595393093.324,-45.898,-35.645,-30.273,-8.301,0.000,0
1595393093.328,78.125,-32.715,-29.785,-18.066,0.000,0
1595393093.332,104.492,-29.785,-25.879,-13.672,0.000,0
1595393093.336,-20.508,-28.320,-35.156,-5.371,0.000,0
1595393093.340,-68.359,-24.902,-48.828,-3.418,0.000,0
1595393093.344,43.457,-21.484,-29.785,-15.137,0.000,0
1595393093.348,109.375,-20.508,-19.531,-21.484,0.000,0
1595393093.351,0.000,-23.926,-28.809,-11.719,0.000,0
1595393093.355,-93.750,-26.367,-35.645,-7.324,0.000,0
1595393093.359,1.953,-21.973,-25.879,-4.395,0.000,0
1595393093.363,114.746,-20.996,-18.066,-7.324,0.000,0
1595393093.367,48.828,-22.949,-30.273,-4.395,0.000,0
1595393093.371,-79.102,-28.809,-40.039,0.000,0.000,0
1595393093.375,-40.039,-33.203,-34.668,4.395,0.000,0
1595393093.379,88.379,-25.879,-24.902,1.953,0.000,0
1595393093.383,70.801,-23.926,-26.855,-1.465,0.000,0
1595393093.387,-65.430,-29.297,-34.668,1.953,0.000,0
1595393093.391,-74.707,-27.832,-31.250,-5.371,0.000,0
1595393093.394,59.082,-25.391,-28.320,-13.184,0.000,0
1595393093.398,88.379,-29.297,-37.598,-8.301,0.000,0
1595393093.402,-40.527,-29.785,-31.738,0.000,0.000,0
1595393093.406,-94.238,-24.414,-28.320,-4.883,0.000,0
1595393093.410,17.578,-27.344,-26.367,-6.836,0.000,0
1595393093.414,81.055,-24.414,-27.344,0.488,0.000,0
1595393093.418,-20.996,-21.973,-24.902,-8.301,0.000,0
1595393093.422,-112.793,-24.902,-26.367,-18.555,0.000,0
1595393093.426,-33.203,-25.879,-21.973,-12.207,0.000,0
1595393093.430,84.473,-23.438,-16.113,-7.812,0.000,0
1595393093.433,29.297,-23.926,-19.043,-9.766,0.000,0
1595393093.437,-92.773,-29.785,-20.508,-10.742,0.000,0
1595393093.441,-57.129,-33.691,-24.414,-9.766,0.000,0
1595393093.445,64.941,-36.621,-24.902,-4.883,0.000,0
1595393093.449,45.898,-35.156,-19.043,-5.859,0.000,0
1595393093.453,-88.867,-36.133,-21.484,-12.695,0.000,0
1595393093.457,-110.840,-40.039,-34.180,-19.531,0.000,0
1595393093.461,15.137,-40.039,-28.809,-22.949,0.000,0
1595393093.465,70.312,-35.645,-23.926,-20.996,0.000,0
1595393093.469,-39.551,-35.156,-36.133,-20.020,0.000,0
1595393093.473,-102.539,-41.504,-51.758,-21.973,0.000,0
1595393093.476,3.418,-42.969,-41.016,-28.809,0.000,0
1595393093.480,99.609,-34.180,-31.250,-27.832,0.000,0
1595393093.484,19.531,-32.227,-37.598,-20.996,0.000,0
1595393093.488,-88.867,-39.062,-48.828,-15.625,0.000,0
1595393093.492,-24.414,-35.156,-38.086,-18.555,0.000,0
1595393093.496,100.098,-24.902,-19.531,-17.090,0.000,0
1595393093.500,57.129,-29.297,-28.809,-12.695,0.000,0
1595393093.504,-70.312,-34.180,-43.457,-15.625,0.000,0
1595393093.508,-51.270,-34.180,-36.133,-24.902,0.000,0
1595393093.512,80.566,-33.691,-16.113,-14.160,0.000,0
1595393093.516,86.914,-34.668,-19.043,-11.719,0.000,0
1595393093.519,-42.480,-34.180,-27.344,-16.602,0.000,0
1595393093.523,-66.406,-29.785,-30.273,-1.953,0.000,0
1595393093.527,53.223,-26.367,-27.344,-7.812,0.000,0
1595393093.531,103.027,-22.949,-34.668,-15.137,0.000,0
1595393093.535,-16.602,-28.809,-45.410,-10.742,0.000,0
1595393093.539,-99.609,-33.203,-49.805,-12.695,0.000,0
1595393093.543,-3.906,-34.180,-36.621,-17.090,0.000,0
1595393093.547,98.145,-38.574,-37.109,-12.695,0.000,0
1595393093.551,24.414,-41.016,-34.180,-2.441,0.000,0
1595393093.555,-87.402,-42.480,-31.738,-2.441,0.000,0
1595393093.558,-35.645,-42.969,-28.320,-1.465,0.000,0
1595393093.562,73.730,-40.039,-22.949,-2.930,0.000,0
1595393093.566,35.156,-40.527,-29.785,-9.766,0.000,0
1595393093.570,-85.449,-40.039,-30.273,0.000,0.000,0
1595393093.574,-74.219,-36.621,-34.180,6.348,0.000,0
1595393093.578,49.316,-36.133,-38.574,-1.465,0.000,0
1595393093.582,66.895,-40.527,-40.039,-4.883,0.000,0
1595393093.586,-59.082,-43.945,-37.109,-8.789,0.000,0
1595393093.590,-104.492,-48.340,-44.434,-15.137,0.000,0
1595393093.594,21.973,-45.898,-41.992,-8.301,0.000,0
1595393093.598,95.703,-36.133,-32.227,2.930,0.000,0
1595393093.601,-18.066,-38.086,-33.691,-9.766,0.000,0
1595393093.605,-110.352,-43.457,-50.293,-20.508,0.000,0
1595393093.609,-13.672,-41.016,-48.828,-8.301,0.000,0
1595393093.613,85.449,-33.203,-30.273,-15.137,0.000,0
1595393093.617,15.137,-28.809,-25.391,-24.414,0.000,0
1595393093.621,-97.168,-26.367,-36.133,-17.090,0.000,0
1595393093.625,-53.223,-28.809,-45.410,-17.578,0.000,0
1595393093.629,63.965,-30.273,-37.598,-28.320,0.000,0
1595393093.633,43.945,-32.715,-33.691,-24.902,0.000,0
1595393093.637,-84.961,-35.645,-39.062,-24.414,0.000,0
1595393093.641,-86.914,-33.691,-39.062,-26.367,0.000,0
1595393093.644,48.340,-31.738,-29.785,-18.555,0.000,0
1595393093.648,72.754,-33.691,-33.203,-8.789,0.000,0
1595393093.652,-54.199,-38.574,-33.691,-6.836,0.000,0
1595393093.656,-104.980,-41.016,-41.504,-17.090,0.000,0
1595393093.660,17.090,-41.504,-36.133,-19.531,0.000,0
1595393093.664,89.844,-42.480,-26.855,-17.090,0.000,0
1595393093.668,-17.090,-44.922,-41.504,-13.184,0.000,0
1595393093.672,-103.516,-38.574,-48.340,-7.324,0.000,0
1595393093.676,-15.137,-29.785,-29.297,-5.371,0.000,0
1595393093.680,94.727,-30.273,-24.414,0.977,0.000,0
1595393093.683,29.785,-33.203,-36.621,4.395,0.000,0
1595393093.687,-92.773,-32.715,-35.645,-6.836,0.000,0
1595393093.691,-53.223,-31.738,-24.414,-18.066,0.000,0
1595393093.695,73.242,-32.715,-20.020,-16.602,0.000,0
1595393093.699,57.129,-31.738,-26.367,-4.395,0.000,0
1595393093.703,-78.125,-32.227,-28.809,2.930,0.000,0
1595393093.707,-98.633,-36.133,-27.344,-11.719,0.000,0
1595393093.711,11.719,-36.133,-23.438,-16.113,0.000,0
1595393093.715,36.133,-33.691,-26.367,-8.789,0.000,0
1595393093.719,-90.332,-36.133,-32.715,-10.742,0.000,0
1595393093.723,-154.785,-38.086,-44.434,-13.184,0.000,0
1595393093.726,-41.504,-38.574,-39.062,-18.066,0.000,0
1595393093.730,60.059,-41.504,-40.039,-17.578,0.000,0
1595393093.734,-19.531,-40.039,-29.785,-15.137,0.000,0
1595393093.738,-120.117,-41.016,-27.832,-11.719,0.000,0
1595393093.742,-45.410,-42.969,-35.156,-20.996,0.000,0
1595393093.746,68.359,-41.016,-31.738,-25.391,0.000,0
1595393093.750,6.836,-41.504,-31.250,-27.344,0.000,0
1595393093.754,-115.723,-44.922,-37.109,-33.691,0.000,0
1595393093.758,-88.379,-40.527,-41.992,-25.879,0.000,0
1595393093.762,35.156,-36.133,-28.320,-22.461,0.000,0
1595393093.766,26.855,-36.621,-26.367,-23.926,0.000,0
1595393093.769,-113.281,-37.598,-38.086,-32.715,0.000,0
1595393093.773,-145.996,-42.480,-47.363,-40.527,0.000,0
1595393093.777,-19.531,-37.109,-30.762,-44.434,0.000,0
1595393093.781,20.996,-33.691,-30.273,-56.152,0.000,0
1595393093.785,-99.121,-32.715,-38.574,-53.711,0.000,0
1595393093.789,-167.480,-28.809,-39.062,-55.176,0.000,0
1595393093.793,-64.941,-25.391,-27.832,-63.965,0.000,0
1595393093.797,21.973,-24.902,-21.973,-63.965,0.000,0
1595393093.801,-76.172,-34.668,-27.344,-73.242,0.000,0
1595393093.805,-189.941,-36.621,-33.691,-77.637,0.000,0
1595393093.808,-128.418,-33.691,-27.832,-81.055,0.000,0
1595393093.812,-17.578,-32.227,-20.020,-89.355,0.000,0
1595393093.816,-58.594,-33.203,-32.227,-98.145,0.000,0
1595393093.820,-177.246,-37.109,-40.527,-103.027,0.000,0
1595393093.824,-160.156,-39.062,-32.227,-102.051,0.000,0
1595393093.828,-19.531,-38.574,-20.996,-96.191,0.000,0
1595393093.832,0.000,-40.527,-35.645,-95.703,0.000,0
1595393093.836,-127.930,-37.598,-46.875,-96.680,0.000,0
1595393093.840,-151.367,-28.320,-39.062,-89.844,0.000,0
1595393093.844,-15.625,-32.227,-29.785,-76.172,0.000,0
1595393093.848,54.688,-28.320,-30.273,-67.871,0.000,0
1595393093.851,-50.781,-20.020,-27.832,-64.453,0.000,0
1595393093.855,-119.629,-25.879,-29.785,-50.293,0.000,0
1595393093.859,-11.719,-32.227,-24.414,-41.992,0.000,0
1595393093.863,81.055,-32.227,-28.809,-43.457,0.000,0
1595393093.867,8.301,-32.227,-26.855,-36.621,0.000,0
1595393093.871,-98.145,-33.691,-27.832,-29.297,0.000,0
1595393093.875,-40.527,-34.180,-31.250,-21.973,0.000,0
1595393093.879,98.633,-34.180,-23.926,-10.254,0.000,0
1595393093.883,76.660,-31.250,-21.973,1.465,0.000,0
1595393093.887,-48.340,-32.715,-26.367,6.836,0.000,0
1595393093.891,-35.645,-33.203,-37.598,-0.977,0.000,0
1595393093.894,96.680,-32.227,-40.527,8.301,0.000,0
1595393093.898,122.559,-34.180,-32.227,21.973,0.000,0
1595393093.902,2.441,-38.574,-32.715,24.902,0.000,0
1595393093.906,-39.062,-43.945,-38.574,28.320,0.000,0
1595393093.910,77.148,-45.898,-36.133,21.484,0.000,0
1595393093.914,132.812,-45.410,-38.086,17.578,0.000,0
1595393093.918,20.996,-46.387,-41.992,20.508,0.000,0
1595393093.922,-55.664,-41.504,-48.340,25.879,0.000,0
1595393093.926,28.320,-36.133,-39.062,26.367,0.000,0
1595393093.930,132.324,-29.785,-27.832,38.574,0.000,0
1595393093.933,71.289,-29.785,-29.785,41.992,0.000,0
1595393093.937,-51.270,-35.645,-51.270,37.109,0.000,0
1595393093.941,-7.812,-38.574,-59.570,35.156,0.000,0
1595393093.945,125.977,-35.156,-34.180,32.227,0.000,0
1595393093.949,107.422,-30.762,-32.227,40.039,0.000,0
1595393093.953,-27.832,-35.645,-41.016,37.109,0.000,0
1595393093.957,-35.156,-40.527,-39.062,22.949,0.000,0
1595393093.961,83.496,-37.598,-28.320,19.043,0.000,0
1595393093.965,104.492,-30.273,-28.320,25.391,0.000,0
1595393093.969,-21.484,-32.715,-34.668,22.461,0.000,0
1595393093.973,-86.426,-38.574,-30.273,12.207,0.000,0
1595393093.976,24.902,-37.598,-15.137,8.789,0.000,0
1595393093.980,108.887,-35.645,-19.531,13.672,0.000,0
1595393093.984,15.137,-37.109,-25.879,25.391,0.000,0
1595393093.988,-86.914,-43.457,-27.832,20.020,0.000,0
1595393093.992,-10.742,-43.457,-24.902,10.742,0.000,0
1595393093.996,110.352,-41.016,-27.344,10.254,0.000,0
1595393094.000,48.340,-41.504,-36.133,10.742,0.000,0
1595393094.004,-86.914,-44.434,-34.668,10.254,0.000,0
1595393094.008,-56.152,-39.062,-29.785,9.277,0.000,0
1595393094.012,71.289,-34.668,-23.438,7.324,0.000,0
1595393094.016,56.641,-35.645,-28.320,14.648,0.000,0
1595393094.019,-72.266,-36.621,-22.461,8.301,0.000,0
1595393094.023,-91.309,-41.016,-25.879,0.977,0.000,0
1595393094.027,29.297,-42.969,-29.297,-0.488,0.000,0
1595393094.031,80.078,-38.086,-27.832,-5.859,0.000,0
1595393094.035,-35.156,-35.156,-23.926,5.859,0.000,0
1595393094.039,-106.934,-37.598,-30.762,8.789,0.000,0
1595393094.043,-0.488,-36.621,-31.250,-2.930,0.000,0
1595393094.047,88.867,-32.715,-25.391,0.000,0.000,0
1595393094.051,-10.742,-33.203,-25.879,7.324,0.000,0
1595393094.055,-113.281,-37.109,-31.250,3.418,0.000,0
1595393094.058,-36.621,-37.109,-29.297,6.836,0.000,0
1595393094.062,81.543,-35.645,-17.578,12.207,0.000,0
1595393094.066,41.016,-37.109,-15.137,16.602,0.000,0
1595393094.070,-82.031,-36.133,-21.973,13.672,0.000,0
1595393094.074,-59.570,-39.551,-30.762,9.277,0.000,0
1595393094.078,68.848,-39.551,-19.043,8.301,0.000,0
1595393094.082,72.754,-34.668,-13.672,11.719,0.000,0
1595393094.086,-48.340,-33.691,-27.344,13.184,0.000,0
1595393094.090,-73.730,-27.832,-32.715,9.766,0.000,0
1595393094.094,43.457,-26.855,-18.555,3.906,0.000,0
1595393094.098,92.773,-29.785,-24.414,-0.977,0.000,0
1595393094.101,-13.672,-32.715,-31.738,0.977,0.000,0
1595393094.105,-91.797,-32.715,-35.645,-0.488,0.000,0
1595393094.109,-3.418,-29.785,-26.367,-1.953,0.000,0
1595393094.113,93.750,-31.738,-20.996,1.953,0.000,0
1595393094.117,9.277,-34.668,-29.785,10.254,0.000,0
1595393094.121,-104.980,-35.156,-36.133,1.953,0.000,0
1595393094.125,-41.016,-29.297,-29.297,-5.859,0.000,0
1595393094.129,77.637,-31.738,-31.250,-9.766,0.000,0
1595393094.133,43.457,-33.691,-41.504,-5.859,0.000,0
1595393094.137,-85.938,-31.738,-42.969,-0.488,0.000,0
1595393094.141,-77.637,-33.691,-45.898,0.977,0.000,0
1595393094.144,56.641,-25.879,-47.363,-5.371,0.000,0
1595393094.148,62.988,-26.367,-56.641,-7.812,0.000,0
1595393094.152,-68.359,-33.203,-63.477,-10.254,0.000,0
1595393094.156,-104.004,-29.785,-55.664,-19.043,0.000,0
1595393094.160,21.484,-24.902,-46.387,-16.602,0.000,0
1595393094.164,88.379,-23.438,-50.293,-7.324,0.000,0
1595393094.168,-19.043,-24.902,-50.781,-1.465,0.000,0
1595393094.172,-102.051,-24.902,-52.734,-6.348,0.000,0
1595393094.176,-6.348,-23.926,-45.898,-10.254,0.000,0
1595393094.180,94.727,-26.367,-47.852,0.000,0.000,0
1595393094.183,20.508,-30.762,-41.992,4.395,0.000,0
1595393094.187,-90.820,-37.598,-43.457,0.488,0.000,0
1595393094.191,-43.457,-34.180,-45.898,7.324,0.000,0
1595393094.195,81.055,-30.762,-41.504,0.488,0.000,0
1595393094.199,57.617,-34.668,-43.457,-8.301,0.000,0
1595393094.203,-73.730,-35.645,-49.316,-3.418,0.000,0
1595393094.207,-82.520,-32.227,-64.453,1.465,0.000,0
1595393094.211,35.645,-32.227,-64.453,-3.906,0.000,0
1595393094.215,63.965,-33.691,-53.223,-3.906,0.000,0
1595393094.219,-54.199,-34.668,-57.617,12.207,0.000,0
1595393094.223,-105.957,-37.109,-74.707,10.742,0.000,0
1595393094.226,11.230,-37.109,-67.383,3.906,0.000,0
1595393094.230,83.496,-33.691,-61.523,-0.977,0.000,0
1595393094.234,-12.207,-31.738,-67.871,-1.465,0.000,0
1595393094.238,-94.727,-32.227,-75.684,6.348,0.000,0
1595393094.242,-18.066,-27.832,-66.406,3.418,0.000,0
1595393094.246,88.867,-20.996,-59.082,-0.488,0.000,0
1595393094.250,28.320,-24.414,-68.359,-2.441,0.000,0
1595393094.254,-91.797,-28.809,-83.496,-4.395,0.000,0
1595393094.258,-51.270,-31.738,-83.984,-12.207,0.000,0
1595393094.262,78.125,-30.762,-73.242,-20.020,0.000,0
1595393094.266,68.359,-28.809,-80.566,-13.184,0.000,0
1595393094.269,-58.594,-34.180,-94.727,0.488,0.000,0
1595393094.273,-74.707,-31.738,-86.914,-0.977,0.000,0
1595393094.277,53.711,-26.855,-73.730,-12.695,0.000,0
1595393094.281,94.727,-27.344,-75.684,-13.672,0.000,0
1595393094.285,-28.809,-31.250,-80.566,-5.371,0.000,0
1595393094.289,-99.121,-36.133,-85.449,-12.207,0.000,0
1595393094.293,10.254,-34.668,-79.590,-16.602,0.000,0
1595393094.297,95.703,-32.715,-79.590,-5.371,0.000,0
1595393094.301,2.930,-34.180,-78.125,-3.418,0.000,0
1595393094.305,-102.539,-35.645,-76.172,-9.277,0.000,0
1595393094.308,-28.320,-39.062,-72.266,-4.883,0.000,0
1595393094.312,90.820,-33.203,-70.801,-5.859,0.000,0
1595393094.316,33.203,-31.250,-72.266,-8.789,0.000,0
1595393094.320,-99.609,-36.621,-69.824,-7.324,0.000,0
1595393094.324,-73.242,-38.574,-62.988,-11.230,0.000,0
1595393094.328,59.082,-35.156,-58.594,-12.207,0.000,0
1595393094.332,57.129,-32.715,-65.430,-4.395,0.000,0
1595393094.336,-73.730,-33.203,-60.547,-8.301,0.000,0
1595393094.340,-92.285,-36.133,-52.734,-15.137,0.000,0
1595393094.344,29.297,-38.574,-53.711,-12.207,0.000,0
1595393094.348,73.242,-38.574,-52.734,-10.254,0.000,0
1595393094.351,-40.039,-36.621,-51.270,-7.812,0.000,0
1595393094.355,-106.445,-37.598,-61.035,-7.324,0.000,0
1595393094.359,-1.465,-38.086,-57.617,-15.137,0.000,0
1595393094.363,89.844,-35.156,-47.852,-14.648,0.000,0
1595393094.367,0.000,-30.762,-49.805,-7.324,0.000,0
1595393094.371,-116.211,-30.273,-59.570,-16.602,0.000,0
1595393094.375,-50.293,-35.156,-55.664,-16.113,0.000,0
1595393094.379,68.359,-34.668,-47.852,-7.812,0.000,0
1595393094.383,19.531,-31.738,-49.316,-4.883,0.000,0
1595393094.387,-117.188,-40.527,-63.965,-7.324,0.000,0
1595393094.391,-108.887,-43.945,-76.172,-8.301,0.000,0
1595393094.394,18.066,-34.180,-57.617,-12.695,0.000,0
1595393094.398,31.250,-32.715,-54.688,-16.602,0.000,0
1595393094.402,-92.285,-32.715,-61.035,-7.324,0.000,0
1595393094.406,-121.582,-29.297,-60.059,-6.348,0.000,0
1595393094.410,-7.812,-29.297,-52.734,-20.020,0.000,0
1595393094.414,37.598,-33.691,-53.711,-21.973,0.000,0
1595393094.418,-70.312,-40.527,-55.176,-6.836,0.000,0
1595393094.422,-140.137,-38.086,-55.664,-11.230,0.000,0
1595393094.426,-38.574,-34.668,-51.270,-23.438,0.000,0
1595393094.430,60.059,-35.645,-48.340,-16.602,0.000,0
1595393094.433,-14.160,-43.457,-62.012,-12.207,0.000,0
1595393094.437,-122.070,-42.480,-60.059,-16.602,0.000,0
1595393094.441,-66.406,-38.086,-42.969,-26.855,0.000,0
1595393094.445,58.594,-41.016,-42.480,-22.461,0.000,0
1595393094.449,35.645,-40.527,-47.363,-12.207,0.000,0
1595393094.453,-88.379,-38.574,-46.387,-21.973,0.000,0
1595393094.457,-88.867,-39.062,-48.340,-22.949,0.000,0
1595393094.461,43.457,-40.527,-43.945,-17.090,0.000,0
1595393094.465,62.988,-40.527,-46.387,-14.160,0.000,0
1595393094.469,-61.035,-40.527,-46.875,-5.859,0.000,0
1595393094.473,-102.051,-42.969,-50.781,-4.395,0.000,0
1595393094.476,5.371,-40.039,-51.270,-11.230,0.000,0
1595393094.480,59.082,-37.598,-55.176,-3.906,0.000,0
1595393094.484,-49.805,-36.621,-43.945,-3.906,0.000,0
1595393094.488,-141.113,-34.668,-46.387,-5.371,0.000,0
1595393094.492,-54.199,-37.109,-45.410,-4.395,0.000,0
1595393094.496,55.664,-36.621,-34.180,-2.441,0.000,0
1595393094.500,-3.418,-31.738,-31.738,3.418,0.000,0
1595393094.504,-116.699,-32.715,-44.434,1.465,0.000,0
1595393094.508,-66.895,-37.598,-47.852,-2.441,0.000,0
1595393094.512,76.172,-34.180,-30.273,-1.953,0.000,0
1595393094.516,61.523,-29.785,-27.832,0.000,0.000,0
1595393094.519,-66.406,-34.668,-38.574,0.977,0.000,0
1595393094.523,-71.777,-35.156,-42.480,-5.371,0.000,0
1595393094.527,51.270,-31.738,-29.785,-8.789,0.000,0
1595393094.531,77.148,-34.180,-29.297,-4.883,0.000,0
1595393094.535,-42.969,-33.691,-30.273,-6.348,0.000,0
1595393094.539,-103.027,-38.574,-40.527,-15.137,0.000,0
1595393094.543,9.766,-40.039,-27.344,-19.531,0.000,0
1595393094.547,96.191,-37.598,-17.578,-15.625,0.000,0
1595393094.551,-2.930,-40.039,-22.949,-9.277,0.000,0
1595393094.555,-101.074,-37.109,-27.832,-12.207,0.000,0
1595393094.558,-8.301,-30.273,-16.602,-16.113,0.000,0
1595393094.562,115.723,-28.809,-11.230,-13.672,0.000,0
1595393094.566,53.223,-25.391,-25.391,-6.348,0.000,0
1595393094.570,-73.242,-24.414,-31.250,-1.465,0.000,0
1595393094.574,-37.109,-25.391,-18.555,-10.254,0.000,0
1595393094.578,87.891,-20.996,-6.348,-21.973,0.000,0
1595393094.582,74.707,-22.461,-6.348,-15.137,0.000,0
1595393094.586,-52.734,-23.926,-10.742,-4.883,0.000,0
1595393094.590,-75.195,-23.926,-10.254,-3.418,0.000,0
1595393094.594,41.504,-30.762,0.000,-6.348,0.000,0
1595393094.598,85.938,-35.645,-3.906,-7.324,0.000,0
1595393094.601,-25.391,-31.738,2.441,-1.465,0.000,0
1595393094.605,-83.008,-29.297,3.418,-6.836,0.000,0
1595393094.609,25.391,-31.250,6.836,-7.324,0.000,1
1595393094.613,111.328,-29.297,10.254,-8.301,0.000,0
1595393094.617,13.184,-29.785,11.719,-11.719,0.000,0
1595393094.621,-89.355,-35.156,5.371,-7.812,0.000,0
1595393094.625,-10.254,-42.969,5.371,-4.883,0.000,0
1595393094.629,102.539,-47.852,0.977,-4.883,0.000,0
1595393094.633,42.480,-46.387,3.418,-6.836,0.000,0
1595393094.637,-84.473,-42.969,11.719,-2.930,0.000,0
1595393094.641,-54.199,-40.527,4.883,-6.836,0.000,0
1595393094.644,73.730,-35.156,3.906,-1.953,0.000,0
1595393094.648,76.172,-30.762,6.836,-6.348,0.000,0
1595393094.652,-46.387,-34.180,6.348,-12.207,0.000,0
1595393094.656,-76.660,-37.598,0.977,-5.371,0.000,0
1595393094.660,40.527,-41.016,3.418,-4.883,0.000,0
1595393094.664,95.703,-40.527,8.301,-7.324,0.000,0
1595393094.668,-12.695,-40.527,8.789,-3.418,0.000,0
1595393094.672,-87.402,-43.457,-5.371,-1.465,0.000,0
1595393094.676,9.277,-43.457,-2.441,-3.906,0.000,0
1595393094.680,102.539,-40.527,8.789,2.930,0.000,0
1595393094.683,17.090,-37.598,5.859,-0.488,0.000,0
1595393094.687,-88.867,-32.715,-2.930,-1.953,0.000,0
1595393094.691,-16.113,-30.762,4.395,0.488,0.000,0
1595393094.695,102.051,-29.785,9.277,-2.441,0.000,0
1595393094.699,59.570,-30.273,-3.418,-9.766,0.000,0
1595393094.703,-80.078,-36.621,-15.137,-7.812,0.000,0
1595393094.707,-83.984,-39.551,-18.555,-9.277,0.000,0
1595393094.711,50.293,-37.598,-4.883,-21.484,0.000,0
1595393094.715,67.383,-38.086,0.000,-21.484,0.000,0
1595393094.719,-61.523,-39.551,-9.277,-1.953,0.000,0
1595393094.723,-95.215,-34.668,-5.859,3.418,0.000,0
1595393094.726,29.297,-27.832,14.648,-5.371,0.000,0
1595393094.730,93.262,-29.785,12.207,-0.488,0.000,0
1595393094.734,-24.414,-36.621,0.000,10.254,0.000,0
1595393094.738,-115.234,-38.086,-1.953,1.953,0.000,0
1595393094.742,-22.461,-33.691,6.836,-4.395,0.000,0
1595393094.746,79.590,-34.180,9.277,2.930,0.000,0
1595393094.750,1.953,-41.992,-2.930,-10.254,0.000,0
1595393094.754,-119.141,-49.316,-14.648,-17.090,0.000,0
1595393094.758,-69.824,-48.340,-7.324,-12.207,0.000,0
1595393094.762,58.594,-41.504,1.953,-12.207,0.000,0
1595393094.766,33.691,-41.016,-5.859,-2.930,0.000,0
1595393094.769,-104.980,-42.969,-2.930,-1.953,0.000,0
1595393094.773,-111.328,-45.410,-10.742,-19.531,0.000,0
1595393094.777,18.066,-41.504,-10.254,-28.809,0.000,0
1595393094.781,37.109,-34.668,-5.859,-21.973,0.000,0
1595393094.785,-93.750,-34.180,-18.066,-10.254,0.000,0
1595393094.789,-138.184,-35.645,-26.367,-19.043,0.000,0
1595393094.793,-26.855,-38.086,-18.555,-27.832,0.000,0
1595393094.797,47.363,-30.273,-9.766,-19.531,0.000,0
1595393094.801,-47.852,-30.273,-9.766,-8.301,0.000,0
1595393094.805,-138.672,-38.086,-20.996,-3.906,0.000,0
1595393094.808,-48.340,-39.062,-16.113,1.953,0.000,0
1595393094.812,65.430,-32.715,-8.301,-3.906,0.000,0
1595393094.816,0.488,-38.574,-16.113,-11.230,0.000,0
1595393094.820,-118.652,-46.387,-26.367,-1.953,0.000,0
1595393094.824,-73.730,-40.039,-30.762,6.836,0.000,0
1595393094.828,61.523,-33.203,-7.812,7.324,0.000,0
1595393094.832,49.316,-34.180,-0.977,-0.488,0.000,0
1595393094.836,-83.496,-38.086,-18.555,0.977,0.000,0
1595393094.840,-90.332,-33.691,-26.855,0.977,0.000,0
1595393094.844,45.410,-30.273,-13.672,2.441,0.000,0
1595393094.848,69.336,-39.062,-7.812,3.906,0.000,0
1595393094.851,-60.547,-44.434,-13.672,-2.441,0.000,0
1595393094.855,-112.793,-44.434,-10.742,-3.418,0.000,0
1595393094.859,5.859,-41.016,1.465,7.812,0.000,0
1595393094.863,90.332,-37.598,-2.930,15.137,0.000,0
1595393094.867,-11.230,-40.039,-5.859,11.230,0.000,0
1595393094.871,-106.934,-41.992,-7.812,14.648,0.000,0
1595393094.875,-18.555,-37.109,-5.859,19.043,0.000,0
1595393094.879,94.727,-34.668,0.000,16.113,0.000,0
1595393094.883,31.738,-37.598,-10.254,2.441,0.000,0
1595393094.887,-97.168,-42.969,-15.137,0.977,0.000,0
1595393094.891,-62.988,-41.504,-5.371,4.395,0.000,0
1595393094.894,62.988,-38.574,-4.395,1.465,0.000,0
1595393094.898,55.176,-38.574,-16.113,13.672,0.000,0
1595393094.902,-69.336,-37.598,-12.207,21.484,0.000,0
1595393094.906,-95.215,-35.645,-2.930,3.418,0.000,0
1595393094.910,30.762,-31.250,3.906,-1.465,0.000,0
1595393094.914,90.332,-32.715,1.465,8.301,0.000,0
1595393094.918,-35.156,-35.645,-4.395,-1.953,0.000,0
1595393094.922,-109.863,-33.691,-11.719,-4.395,0.000,0
1595393094.926,0.977,-33.203,-6.836,-2.930,0.000,0
1595393094.930,84.961,-31.250,-7.324,-6.348,0.000,0
1595393094.933,-6.836,-31.738,-11.230,0.000,0.000,0
1595393094.937,-106.445,-34.180,-14.160,-0.488,0.000,0
1595393094.941,-36.621,-37.598,-16.602,-1.953,0.000,0
1595393094.945,83.984,-39.551,-15.137,-0.488,0.000,0
1595393094.949,43.945,-39.551,-13.184,-7.324,0.000,0
1595393094.953,-81.055,-36.621,-16.602,-8.789,0.000,0
1595393094.957,-68.359,-37.109,-21.484,-7.324,0.000,0
1595393094.961,56.641,-37.598,-17.090,-9.277,0.000,0
1595393094.965,61.523,-29.297,-18.555,-7.812,0.000,0
1595393094.969,-71.289,-29.785,-21.973,-12.695,0.000,0
1595393094.973,-101.562,-35.156,-29.785,-20.508,0.000,0
1595393094.976,22.949,-33.203,-21.973,-24.414,0.000,0
1595393094.980,75.195,-34.180,-16.602,-21.973,0.000,0
1595393094.984,-36.621,-40.527,-23.438,-7.324,0.000,0
1595393094.988,-117.188,-48.340,-42.969,-11.719,0.000,0
1595393094.992,-17.578,-44.434,-35.645,-19.531,0.000,0
1595393094.996,78.613,-37.109,-28.320,-14.648,0.000,0
1595393095.000,-5.859,-40.039,-39.551,-14.160,0.000,0
1595393095.004,-114.258,-45.410,-53.223,-9.277,0.000,0
1595393095.008,-52.734,-44.434,-43.457,-10.742,0.000,0
1595393095.012,82.520,-41.992,-25.879,-14.648,0.000,0
1595393095.016,65.918,-39.062,-33.203,-5.371,0.000,0
1595393095.019,-52.734,-34.668,-36.133,6.836,0.000,0
1595393095.023,-48.828,-32.227,-24.902,4.883,0.000,0
1595393095.027,74.707,-35.156,-16.602,-8.789,0.000,0
1595393095.031,93.262,-36.621,-22.949,-6.836,0.000,0
1595393095.035,-34.180,-40.527,-31.738,0.000,0.000,0
1595393095.039,-81.543,-37.598,-33.691,-2.441,0.000,0
1595393095.043,32.227,-33.691,-23.438,-7.812,0.000,0
1595393095.047,92.285,-36.621,-31.738,-9.766,0.000,0
1595393095.051,-15.137,-37.598,-41.016,-5.371,0.000,0
1595393095.055,-105.469,-39.551,-35.645,-14.160,0.000,0
1595393095.058,-19.043,-38.574,-24.414,-25.391,0.000,0
1595393095.062,81.543,-34.180,-19.531,-15.137,0.000,0
1595393095.066,23.926,-35.645,-23.926,-10.254,0.000,0
1595393095.070,-84.961,-33.691,-24.414,-11.230,0.000,0
1595393095.074,-39.551,-32.715,-27.832,-6.836,0.000,0
1595393095.078,86.426,-32.227,-37.109,-14.648,0.000,0
1595393095.082,56.152,-28.809,-39.551,-25.391,0.000,0
1595393095.086,-72.754,-31.250,-33.203,-20.996,0.000,0
1595393095.090,-69.824,-30.273,-32.227,-6.348,0.000,0
1595393095.094,53.223,-29.297,-33.691,-9.766,0.000,0
1595393095.098,88.379,-27.344,-28.320,-15.625,0.000,0
1595393095.101,-27.344,-24.902,-24.902,-15.625,0.000,0
1595393095.105,-85.938,-28.809,-37.109,-16.602,0.000,0
1595393095.109,20.020,-33.203,-32.227,-21.973,0.000,0
1595393095.113,92.773,-35.156,-24.902,-30.273,0.000,0
1595393095.117,-11.230,-37.109,-25.391,-21.973,0.000,0
1595393095.121,-110.840,-35.645,-37.598,-20.508,0.000,0
1595393095.125,-15.625,-30.762,-37.109,-20.996,0.000,0
1595393095.129,101.562,-29.297,-25.879,-6.836,0.000,0
1595393095.133,36.621,-30.762,-21.484,-7.324,0.000,0
1595393095.137,-92.285,-34.668,-27.344,-15.625,0.000,0
1595393095.141,-54.688,-41.504,-34.180,-12.207,0.000,0
1595393095.144,85.938,-36.621,-13.184,-1.465,0.000,0
1595393095.148,75.195,-34.668,-6.348,-3.906,0.000,0
1595393095.152,-57.617,-43.457,-18.555,-6.348,0.000,0
1595393095.156,-80.566,-47.363,-21.973,-8.789,0.000,0
1595393095.160,49.316,-45.898,-12.207,-8.301,0.000,0
1595393095.164,93.750,-43.945,-8.789,-7.324,0.000,0
1595393095.168,-30.762,-41.992,-16.113,-1.465,0.000,0
1595393095.172,-92.773,-42.969,-16.602,1.465,0.000,0
1595393095.176,13.672,-48.340,-11.719,-13.672,0.000,0
1595393095.180,99.121,-45.410,-18.066,-9.766,0.000,0
1595393095.183,0.488,-40.527,-24.414,0.488,0.000,0
1595393095.187,-100.586,-45.410,-24.902,-8.301,0.000,0
1595393095.191,-20.508,-43.457,-20.508,-9.277,0.000,0
1595393095.195,94.727,-41.992,-20.020,-2.441,0.000,0
1595393095.199,48.340,-43.457,-24.902,0.488,0.000,0
1595393095.203,-69.336,-39.062,-20.020,-2.930,0.000,0
1595393095.207,-41.992,-41.504,-17.090,-6.836,0.000,0
1595393095.211,86.914,-42.969,-15.137,-7.324,0.000,0
1595393095.215,86.426,-38.086,-9.766,-5.371,0.000,0
1595393095.219,-37.598,-41.504,-17.578,1.953,0.000,0
1595393095.223,-68.848,-41.016,-31.738,-3.418,0.000,0
1595393095.226,38.574,-38.574,-27.344,-3.906,0.000,0
1595393095.230,88.379,-44.922,-25.879,10.254,0.000,0
1595393095.234,-25.879,-44.922,-15.625,6.836,0.000,0
1595393095.238,-99.121,-42.969,-21.484,1.953,0.000,0
1595393095.242,1.465,-42.480,-23.438,1.465,0.000,0
1595393095.246,95.703,-39.551,-15.137,0.488,0.000,0
1595393095.250,4.883,-40.039,-20.996,3.418,0.000,0
1595393095.254,-121.094,-47.363,-38.086,4.883,0.000,0
1595393095.258,-51.270,-40.527,-32.715,6.836,0.000,0
1595393095.262,83.984,-33.691,-18.066,0.488,0.000,0
1595393095.266,43.945,-37.109,-22.461,-8.301,0.000,0
1595393095.269,-80.078,-38.086,-34.668,-10.254,0.000,0
1595393095.273,-70.312,-40.039,-41.016,-8.789,0.000,0
1595393095.277,46.387,-38.086,-24.414,-10.254,0.000,0
1595393095.281,62.988,-34.180,-14.648,-6.836,0.000,0
1595393095.285,-65.918,-40.039,-28.809,-9.277,0.000,0
1595393095.289,-106.445,-45.410,-42.480,-23.926,0.000,0
1595393095.293,14.160,-40.039,-34.668,-26.367,0.000,0
1595393095.297,77.637,-34.180,-36.621,-19.531,0.000,0
1595393095.301,-22.949,-37.598,-42.480,-6.836,0.000,0
1595393095.305,-107.910,-31.738,-41.016,-6.836,0.000,0
1595393095.308,-15.137,-27.344,-25.879,-17.578,0.000,0
1595393095.312,86.914,-28.320,-21.484,-21.973,0.000,0
1595393095.316,4.395,-26.855,-27.832,-15.625,0.000,0
1595393095.320,-117.676,-33.691,-40.039,-8.789,0.000,0
1595393095.324,-70.801,-30.273,-28.809,-16.113,0.000,0
1595393095.328,46.387,-26.855,-12.695,-14.648,0.000,0
1595393095.332,17.090,-32.227,-28.809,-8.301,0.000,0
1595393095.336,-105.957,-31.250,-42.480,-8.789,0.000,0
1595393095.340,-101.074,-28.320,-32.227,-0.488,0.000,0
1595393095.344,28.320,-33.203,-21.484,-0.977,0.000,0
1595393095.348,57.129,-34.668,-29.785,-7.812,0.000,0
1595393095.351,-61.523,-33.203,-33.691,-8.301,0.000,0
1595393095.355,-112.793,-33.691,-41.504,-16.113,0.000,0
1595393095.359,3.906,-32.227,-41.992,-20.020,0.000,0
1595393095.363,78.613,-31.738,-47.852,-10.742,0.000,0
1595393095.367,-20.508,-30.762,-42.969,0.000,0.000,0
1595393095.371,-103.027,-29.785,-43.945,-6.348,0.000,0
1595393095.375,-11.719,-26.367,-41.504,-16.602,0.000,0
1595393095.379,94.727,-30.762,-40.527,-16.113,0.000,0
1595393095.383,23.438,-36.133,-42.480,-11.719,0.000,0
1595393095.387,-100.586,-35.156,-50.293,-19.043,0.000,0
1595393095.391,-57.617,-32.715,-55.664,-22.461,0.000,0
1595393095.394,67.871,-32.227,-45.898,-15.137,0.000,0
1595393095.398,55.176,-32.227,-47.852,-12.695,0.000,0
1595393095.402,-74.219,-32.227,-57.617,-7.324,0.000,0
1595393095.406,-92.773,-31.738,-66.895,-12.695,0.000,0
1595393095.410,31.738,-26.855,-62.500,-13.672,0.000,0
1595393095.414,74.707,-23.926,-62.012,-12.207,0.000,0
1595393095.418,-43.945,-24.414,-62.012,-19.043,0.000,0
1595393095.422,-109.863,-29.297,-72.266,-17.090,0.000,0
1595393095.426,1.465,-27.832,-69.336,-11.230,0.000,0
1595393095.430,79.590,-28.320,-52.734,-9.766,0.000,0
1595393095.433,-25.879,-35.156,-50.781,-18.066,0.000,0
