timestamps,TP9,AF7,AF8,TP10,Right AUX,Marker0
1595392943.094,146.484,-27.832,-13.184,-11.230,0.000,0
1595392943.098,-75.195,-24.902,-20.996,-8.301,0.000,0
1595392943.101,-128.418,-22.461,-18.066,-2.930,0.000,0
1595392943.105,75.195,-25.391,-11.230,-3.906,0.000,0
1595392943.109,166.992,-23.438,-13.184,-0.977,0.000,0
1595392943.113,-11.230,-18.555,-13.184,6.836,0.000,0
1595392943.117,-143.555,-18.555,-10.254,6.836,0.000,0
1595392943.121,8.301,-26.367,1.465,1.465,0.000,0
1595392943.125,168.457,-28.809,-9.766,7.812,0.000,0
1595392943.129,35.645,-26.855,-20.508,7.812,0.000,0
1595392943.133,-150.391,-31.738,-20.020,0.488,0.000,0
1595392943.137,-56.641,-33.203,-19.043,3.906,0.000,0
1595392943.141,154.297,-22.949,0.977,-3.418,0.000,0
1595392943.144,104.492,-22.461,1.953,-2.441,0.000,0
1595392943.148,-117.676,-31.250,-11.719,1.953,0.000,0
1595392943.152,-104.004,-29.297,-17.578,-0.977,0.000,0
1595392943.156,121.582,-25.391,3.906,-2.441,0.000,0
1595392943.160,148.438,-30.273,8.301,0.488,0.000,0
1595392943.164,-64.453,-33.203,3.418,4.395,0.000,0
1595392943.168,-142.090,-29.297,-12.207,0.000,0.000,0
1595392943.172,48.828,-30.762,-16.113,-0.977,0.000,0
1595392943.176,165.039,-28.809,-4.883,3.906,0.000,0
1595392943.180,-15.137,-24.902,-8.301,5.371,0.000,0
1595392943.183,-157.227,-27.832,-29.297,5.859,0.000,0
1595392943.187,-2.930,-23.438,-23.926,3.418,0.000,0
1595392943.191,168.457,-18.555,-4.395,0.488,0.000,0
1595392943.195,57.129,-23.926,-5.859,1.953,0.000,0
1595392943.199,-135.254,-26.855,-16.113,3.906,0.000,0
1595392943.203,-63.965,-29.785,-15.137,-1.953,0.000,0
1595392943.207,146.484,-32.227,-4.395,-7.324,0.000,0
1595392943.211,115.234,-25.879,-0.977,0.488,0.000,0
1595392943.215,-105.957,-25.391,-18.066,7.324,0.000,0
1595392943.219,-108.887,-22.949,-18.555,0.488,0.000,0
1595392943.223,116.699,-15.137,8.789,-7.812,0.000,0
1595392943.226,164.062,-15.625,-0.977,-3.906,0.000,0
1595392943.230,-50.781,-17.578,-7.812,2.930,0.000,0
1595392943.234,-138.184,-22.461,-11.230,1.465,0.000,0
1595392943.238,52.246,-20.996,2.441,1.953,0.000,0
1595392943.242,174.805,-16.602,3.906,-0.977,0.000,0
1595392943.246,16.602,-16.113,-6.836,-16.602,0.000,0
1595392943.250,-143.066,-17.578,-16.602,-19.531,0.000,0
1595392943.254,-16.602,-19.043,-17.578,-12.695,0.000,0
1595392943.258,165.527,-20.508,-8.789,-13.184,0.000,0
1595392943.262,65.918,-19.531,-3.418,-16.602,0.000,0
1595392943.266,-137.207,-18.066,-5.371,-15.137,0.000,0
1595392943.269,-78.613,-19.531,-6.836,-14.648,0.000,0
1595392943.273,136.719,-24.902,-8.301,-18.555,0.000,0
1595392943.277,120.117,-22.949,-11.230,-8.789,0.000,0
1595392943.281,-100.586,-22.949,3.906,-2.930,0.000,0
1595392943.285,-126.953,-28.320,-4.395,-4.883,0.000,0
1595392943.289,93.262,-29.297,2.930,-5.859,0.000,0
1595392943.293,166.016,-25.879,8.789,-3.418,0.000,0
1595392943.297,-40.527,-23.926,-2.441,-4.883,0.000,0
1595392943.301,-145.508,-28.320,-17.090,-14.648,0.000,0
1595392943.305,33.203,-26.855,-15.137,-13.672,0.000,0
1595392943.308,169.922,-22.461,-4.883,-12.207,0.000,0
1595392943.312,26.367,-21.973,4.883,-15.137,0.000,0
1595392943.316,-145.020,-21.484,-10.742,-9.277,0.000,0
1595392943.320,-29.785,-24.902,-11.719,-11.719,0.000,0
1595392943.324,166.504,-24.414,6.348,-7.324,0.000,0
1595392943.328,79.590,-26.855,6.348,-3.906,0.000,0
1595392943.332,-134.277,-31.738,-11.230,-5.859,0.000,0
1595392943.336,-85.938,-29.785,-14.648,-3.418,0.000,0
1595392943.340,134.277,-22.461,5.859,-1.465,0.000,0
1595392943.344,135.254,-19.043,1.465,-10.742,0.000,0
1595392943.348,-86.426,-25.879,-22.949,-14.648,0.000,0
1595392943.351,-128.418,-23.438,-37.598,-0.977,0.000,0
1595392943.355,89.844,-17.578,-11.230,-4.395,0.000,0
1595392943.359,179.199,-13.672,-10.742,-8.789,0.000,0
1595392943.363,-10.254,-15.625,-29.297,1.465,0.000,0
1595392943.367,-131.836,-16.113,-31.738,3.906,0.000,0
1595392943.371,31.250,-15.137,-9.766,-3.418,0.000,0
1595392943.375,184.570,-20.996,-11.719,-2.930,0.000,0
1595392943.379,51.758,-20.996,-30.273,-3.906,0.000,0
1595392943.383,-132.324,-19.043,-31.738,4.395,0.000,0
1595392943.387,-40.527,-20.508,-20.020,-3.418,0.000,0
1595392943.391,162.598,-19.531,-13.184,-18.555,0.000,0
1595392943.394,99.121,-22.461,-24.414,-2.441,0.000,0
1595392943.398,-122.070,-30.273,-34.668,-3.418,0.000,0
1595392943.402,-97.168,-26.855,-28.809,-21.484,0.000,0
1595392943.406,122.559,-26.367,-11.719,-13.184,0.000,0
1595392943.410,142.578,-32.715,-27.344,-1.465,0.000,0
1595392943.414,-73.730,-27.832,-31.738,-5.371,0.000,0
1595392943.418,-138.672,-21.973,-28.320,-3.906,0.000,0
1595392943.422,69.824,-23.926,-17.090,-4.883,0.000,0
1595392943.426,166.504,-22.461,-15.625,-8.301,0.000,0
1595392943.430,-15.137,-15.625,-12.207,-5.371,0.000,0
1595392943.433,-142.578,-17.578,-11.230,-2.441,0.000,0
1595392943.437,10.742,-16.602,-15.137,-1.465,0.000,0
1595392943.441,167.969,-18.066,-20.508,-8.301,0.000,0
1595392943.445,42.969,-24.902,-23.926,-15.137,0.000,0
1595392943.449,-141.113,-26.855,-23.438,-12.207,0.000,0
1595392943.453,-55.664,-27.344,-27.344,-7.812,0.000,0
1595392943.457,144.531,-24.902,-18.555,-4.883,0.000,0
1595392943.461,98.145,-24.414,-16.113,-9.766,0.000,0
1595392943.465,-120.117,-27.832,-26.367,-6.348,0.000,0
1595392943.469,-111.328,-26.367,-22.949,-0.977,0.000,0
1595392943.473,116.699,-21.973,-5.859,-3.418,0.000,0
1595392943.476,151.367,-20.996,-2.441,-3.418,0.000,0
1595392943.480,-60.547,-25.879,-4.395,1.953,0.000,0
1595392943.484,-135.742,-27.832,-18.555,7.812,0.000,0
1595392943.488,62.988,-23.926,-13.184,0.000,0.000,0
1595392943.492,174.805,-21.973,-0.977,-5.859,0.000,0
1595392943.496,3.418,-27.832,-4.395,-1.953,0.000,0
1595392943.500,-141.113,-36.621,-25.391,-4.883,0.000,0
1595392943.504,-4.395,-32.715,-18.555,-19.531,0.000,0
1595392943.508,175.293,-23.926,-0.488,-15.625,0.000,0
1595392943.512,72.754,-20.508,-4.883,-4.883,0.000,0
1595392943.516,-137.695,-30.273,-24.414,-7.324,0.000,0
1595392943.519,-79.102,-34.668,-19.043,-15.137,0.000,0
1595392943.523,138.672,-28.320,-1.953,-22.461,0.000,0
1595392943.527,113.770,-29.785,-11.230,-18.066,0.000,0
1595392943.531,-111.816,-31.250,-20.020,-4.883,0.000,0
1595392943.535,-123.047,-25.879,-18.555,-3.906,0.000,0
1595392943.539,98.145,-23.438,-2.441,-13.184,0.000,0
1595392943.543,151.855,-27.832,-12.207,-13.672,0.000,0
1595392943.547,-51.270,-27.832,-18.555,-5.859,0.000,0
1595392943.551,-148.438,-24.414,-11.719,-11.719,0.000,0
1595392943.555,32.715,-27.832,2.930,-21.973,0.000,0
1595392943.558,167.480,-28.809,-1.465,-14.160,0.000,0
1595392943.562,14.648,-28.320,-5.371,-5.371,0.000,0
1595392943.566,-145.508,-24.902,-4.395,-15.625,0.000,0
1595392943.570,-17.090,-20.508,-3.418,-15.625,0.000,0
1595392943.574,168.945,-20.020,4.883,-11.719,0.000,0
1595392943.578,77.148,-25.879,-1.953,-13.672,0.000,0
1595392943.582,-130.371,-27.832,-13.184,-5.859,0.000,0
1595392943.586,-74.219,-25.879,-17.578,0.488,0.000,0
1595392943.590,147.949,-27.832,-11.719,-15.625,0.000,0
1595392943.594,134.277,-26.367,-8.789,-12.207,0.000,0
1595392943.598,-83.008,-23.926,-12.695,4.883,0.000,0
1595392943.601,-111.816,-26.855,-30.273,-6.348,0.000,0
1595392943.605,110.840,-20.508,-21.973,-2.441,0.000,0
1595392943.609,181.152,-16.113,-0.488,7.812,0.000,0
1595392943.613,-37.109,-23.438,4.395,-1.953,0.000,0
1595392943.617,-157.715,-33.203,-14.160,-8.789,0.000,0
1595392943.621,20.020,-35.645,-4.883,-3.906,0.000,0
1595392943.625,176.758,-31.738,10.254,4.395,0.000,0
1595392943.629,39.062,-33.691,2.441,11.230,0.000,0
1595392943.633,-141.113,-39.062,-13.184,11.230,0.000,0
1595392943.637,-31.250,-42.969,-0.488,-0.488,0.000,0
1595392943.641,174.805,-35.645,23.438,0.977,0.000,0
1595392943.644,106.445,-30.762,11.719,9.277,0.000,0
1595392943.648,-112.305,-34.180,-12.695,11.230,0.000,2
1595392943.652,-81.543,-34.180,-9.766,3.418,0.000,0
1595392943.656,140.137,-36.133,9.766,-4.883,0.000,0
1595392943.660,146.973,-40.039,1.465,-0.977,0.000,0
1595392943.664,-68.848,-37.109,-17.090,18.066,0.000,0
1595392943.668,-116.211,-29.785,-23.438,24.902,0.000,0
1595392943.672,93.262,-26.367,3.906,-0.488,0.000,0
1595392943.676,186.523,-31.250,3.418,0.977,0.000,0
1595392943.680,-0.977,-33.691,-18.066,17.578,0.000,0
1595392943.683,-130.371,-33.691,-23.438,7.324,0.000,0
1595392943.687,24.902,-33.691,2.930,-1.465,0.000,0
1595392943.691,173.340,-41.016,0.977,3.906,0.000,0
1595392943.695,46.387,-41.016,-3.906,3.418,0.000,0
1595392943.699,-136.230,-37.598,-10.254,-1.465,0.000,0
1595392943.703,-44.922,-36.621,-19.043,-4.395,0.000,0
1595392943.707,161.621,-31.250,-12.695,-6.836,0.000,0
1595392943.711,103.516,-32.227,-14.648,-4.395,0.000,0
1595392943.715,-110.840,-33.691,-21.484,-2.930,0.000,0
1595392943.719,-90.820,-33.203,-23.438,-0.488,0.000,0
1595392943.723,126.953,-34.180,-15.625,0.488,0.000,0
1595392943.726,148.438,-31.738,-22.461,-8.301,0.000,0
1595392943.730,-65.918,-36.133,-20.508,-4.395,0.000,0
1595392943.734,-132.324,-40.527,-19.531,3.906,0.000,0
1595392943.738,71.777,-33.203,-16.602,7.812,0.000,0
1595392943.742,183.105,-30.273,-13.184,12.207,0.000,0
1595392943.746,7.812,-31.738,-8.301,3.906,0.000,0
1595392943.750,-133.789,-30.762,-21.973,3.906,0.000,0
1595392943.754,14.648,-31.250,-24.902,-0.488,0.000,0
1595392943.758,175.293,-31.738,-16.113,-7.812,0.000,0
1595392943.762,57.617,-30.762,-14.648,4.883,0.000,0
1595392943.766,-124.512,-30.762,-24.902,8.301,0.000,0
1595392943.769,-46.387,-30.762,-31.250,7.812,0.000,0
1595392943.773,166.504,-29.785,-16.113,12.695,0.000,0
1595392943.777,124.512,-29.297,-6.836,8.301,0.000,0
1595392943.781,-98.145,-32.715,-20.020,8.789,0.000,0
1595392943.785,-101.562,-32.227,-33.691,14.160,0.000,0
1595392943.789,114.258,-31.250,-9.766,10.254,0.000,0
1595392943.793,161.133,-29.785,-2.930,8.301,0.000,0
1595392943.797,-51.758,-29.297,-20.508,8.789,0.000,0
1595392943.801,-144.043,-32.715,-33.203,7.324,0.000,0
1595392943.805,44.434,-25.879,-16.602,-5.859,0.000,0
1595392943.808,167.969,-21.973,-9.277,-20.020,0.000,0
1595392943.812,3.906,-24.414,-20.996,-13.184,0.000,0
1595392943.816,-149.902,-27.832,-36.621,-8.789,0.000,0
1595392943.820,-13.672,-29.297,-25.391,-13.672,0.000,0
1595392943.824,167.969,-26.855,-10.254,-11.719,0.000,0
1595392943.828,69.824,-29.297,-17.090,-6.836,0.000,0
1595392943.832,-136.230,-33.691,-27.344,-2.930,0.000,0
1595392943.836,-79.590,-32.715,-16.113,-10.742,0.000,0
1595392943.840,137.207,-26.367,-3.906,-16.602,0.000,0
1595392943.844,117.676,-24.902,-14.648,-17.578,0.000,0
1595392943.848,-104.004,-21.973,-20.020,-13.672,0.000,0
1595392943.851,-120.605,-18.066,-17.578,-13.184,0.000,0
1595392943.855,98.633,-20.020,-10.742,-19.531,0.000,0
1595392943.859,153.809,-23.926,-19.531,-18.555,0.000,0
1595392943.863,-53.711,-27.344,-24.414,-16.113,0.000,0
1595392943.867,-157.715,-29.297,-18.555,-17.090,0.000,0
1595392943.871,29.297,-28.809,-6.348,-17.090,0.000,0
1595392943.875,173.828,-24.902,-9.766,-2.930,0.000,0
1595392943.879,12.207,-25.879,-11.719,1.465,0.000,0
1595392943.883,-160.645,-29.785,-12.207,-9.277,0.000,0
1595392943.887,-37.598,-24.414,-13.672,-14.160,0.000,0
1595392943.891,155.273,-16.602,-19.043,-9.277,0.000,0
1595392943.894,78.125,-17.090,-18.555,-5.371,0.000,0
1595392943.898,-128.418,-16.113,-15.137,-9.766,0.000,0
1595392943.902,-89.355,-21.973,-19.043,-10.254,0.000,0
1595392943.906,131.348,-25.879,-3.906,-16.602,0.000,0
1595392943.910,123.535,-22.949,-3.906,-17.090,0.000,0
1595392943.914,-103.027,-23.438,-4.395,-9.766,0.000,0
1595392943.918,-144.043,-26.855,-11.230,-9.766,0.000,0
1595392943.922,62.012,-22.461,-3.906,-17.578,0.000,0
1595392943.926,148.438,-14.160,3.906,-7.324,0.000,0
1595392943.930,-41.504,-21.484,-5.371,-4.395,0.000,0
1595392943.933,-159.668,-30.273,-26.855,-15.137,0.000,0
1595392943.937,6.348,-30.762,-25.391,-11.719,0.000,0
1595392943.941,152.344,-25.391,-7.324,-15.137,0.000,0
1595392943.945,18.555,-25.391,-10.742,-7.812,0.000,0
1595392943.949,-156.250,-27.344,-21.484,-6.836,0.000,0
1595392943.953,-56.641,-26.367,-15.137,-20.020,0.000,0
1595392943.957,142.090,-27.344,-2.930,-21.973,0.000,0
1595392943.961,75.684,-25.391,-5.859,-28.320,0.000,0
1595392943.965,-131.836,-28.809,-10.254,-24.902,0.000,0
1595392943.969,-105.957,-30.273,-11.719,-26.855,0.000,0
1595392943.973,115.723,-29.785,-2.930,-27.344,0.000,0
1595392943.976,143.555,-26.367,0.000,-10.742,0.000,0
1595392943.980,-81.055,-28.809,-10.742,4.883,0.000,0
1595392943.984,-145.996,-37.598,-8.789,0.977,0.000,0
1595392943.988,66.406,-34.668,21.973,-2.441,0.000,0
1595392943.992,160.645,-30.762,12.207,-6.348,0.000,0
1595392943.996,-30.273,-32.715,-0.488,-6.836,0.000,0
1595392944.000,-163.086,-38.086,-8.789,-5.859,0.000,0
1595392944.004,-4.395,-34.668,-5.859,-6.348,0.000,0
1595392944.008,165.527,-25.879,-7.324,4.395,0.000,0
1595392944.012,40.527,-23.926,-24.414,-0.977,0.000,0
1595392944.016,-148.438,-27.344,-25.391,-6.836,0.000,0
1595392944.019,-54.688,-23.926,-14.648,-1.953,0.000,0
1595392944.023,145.020,-18.555,-5.371,0.488,0.000,0
1595392944.027,85.938,-23.438,-9.766,0.488,0.000,0
1595392944.031,-133.301,-28.320,-13.184,-0.488,0.000,0
1595392944.035,-121.582,-31.250,-13.672,-0.488,0.000,0
1595392944.039,99.121,-32.227,-5.859,-5.371,0.000,0
1595392944.043,130.371,-27.344,-9.766,-6.348,0.000,0
1595392944.047,-83.008,-25.391,-15.137,-4.395,0.000,0
1595392944.051,-158.203,-27.344,-21.484,-12.207,0.000,0
1595392944.055,36.621,-32.715,-23.438,-10.254,0.000,0
1595392944.058,145.508,-32.715,-20.996,-2.441,0.000,0
1595392944.062,-20.508,-27.832,-5.859,-4.883,0.000,0
1595392944.066,-154.297,-25.879,-20.508,-5.371,0.000,0
1595392944.070,-13.672,-27.344,-17.090,-9.277,0.000,0
1595392944.074,161.621,-30.273,-6.348,-8.301,0.000,0
1595392944.078,57.129,-30.273,-17.578,-2.930,0.000,0
1595392944.082,-140.137,-28.320,-34.668,-3.906,0.000,0
1595392944.086,-65.918,-30.273,-35.645,0.000,0.000,0
1595392944.090,145.508,-33.203,-16.113,2.930,0.000,0
1595392944.094,114.746,-32.715,-16.113,-3.906,0.000,0
1595392944.098,-101.074,-30.762,-30.273,2.930,0.000,0
1595392944.101,-108.887,-28.320,-34.668,15.137,0.000,0
1595392944.105,105.957,-28.809,-8.301,7.324,0.000,0
1595392944.109,160.645,-27.344,-2.930,-3.906,0.000,0
1595392944.113,-44.922,-24.414,-13.184,5.859,0.000,0
1595392944.117,-141.113,-25.879,-22.461,3.418,0.000,0
1595392944.121,39.062,-27.344,-6.836,-16.113,0.000,0
1595392944.125,162.109,-28.809,-0.488,-19.043,0.000,0
1595392944.129,7.812,-30.762,-13.672,-6.348,0.000,0
1595392944.133,-152.344,-31.250,-20.020,7.324,0.000,0
1595392944.137,-22.461,-24.414,-8.789,2.441,0.000,0
1595392944.141,164.062,-22.949,0.000,2.930,0.000,0
1595392944.144,68.359,-30.762,-11.230,8.789,0.000,0
1595392944.148,-133.789,-34.180,-19.531,-1.953,0.000,0
1595392944.152,-74.219,-31.738,-12.207,-5.859,0.000,0
1595392944.156,154.297,-24.414,0.000,0.000,0.000,0
1595392944.160,140.625,-26.367,-20.996,14.160,0.000,0
1595392944.164,-90.332,-30.762,-32.227,7.812,0.000,0
1595392944.168,-111.816,-25.391,-19.043,-10.254,0.000,0
1595392944.172,112.305,-22.949,-7.324,0.488,0.000,0
1595392944.176,172.852,-23.438,-12.695,-0.488,0.000,0
1595392944.180,-30.273,-28.320,-15.137,-10.254,0.000,0
1595392944.183,-130.859,-26.855,-19.531,-5.371,0.000,0
1595392944.187,47.852,-22.461,-18.555,-1.953,0.000,0
1595392944.191,182.617,-27.832,-14.648,-4.883,0.000,0
1595392944.195,27.832,-35.645,-10.742,-8.789,0.000,0
1595392944.199,-137.695,-39.551,-16.113,-2.441,0.000,0
1595392944.203,-18.066,-35.156,-20.996,-0.488,0.000,0
1595392944.207,179.199,-26.367,-12.695,11.230,0.000,0
1595392944.211,108.398,-25.391,2.930,20.508,0.000,0
1595392944.215,-115.234,-34.180,0.488,-1.953,0.000,0
1595392944.219,-94.238,-41.504,-20.996,-6.348,0.000,0
1595392944.223,132.324,-41.016,-8.301,4.395,0.000,0
1595392944.226,134.766,-38.574,9.277,6.348,0.000,0
1595392944.230,-92.285,-39.062,0.000,2.441,0.000,0
1595392944.234,-140.625,-42.969,-14.160,-6.348,0.000,0
1595392944.238,70.312,-41.016,-1.953,-8.301,0.000,0
1595392944.242,152.344,-39.551,-0.488,-20.996,0.000,0
1595392944.246,-43.457,-40.527,-12.207,-26.367,0.000,0
1595392944.250,-161.133,-41.504,-35.645,-18.066,0.000,0
1595392944.254,11.719,-41.016,-28.809,-15.625,0.000,0
1595392944.258,167.480,-35.645,-7.324,-27.344,0.000,0
1595392944.262,26.855,-40.039,-16.113,-26.855,0.000,0
1595392944.266,-147.949,-41.016,-28.809,-9.766,0.000,0
1595392944.269,-40.527,-39.551,-20.508,-10.742,0.000,0
1595392944.273,149.902,-35.156,-8.301,-26.367,0.000,0
1595392944.277,78.125,-36.133,-19.043,-27.832,0.000,0
1595392944.281,-140.137,-45.898,-30.762,-21.973,0.000,0
1595392944.285,-112.793,-48.828,-30.273,-21.484,0.000,0
1595392944.289,117.676,-38.574,-6.836,-28.320,0.000,0
1595392944.293,138.672,-34.668,-9.766,-22.949,0.000,0
1595392944.297,-74.707,-38.574,-26.855,-9.766,0.000,0
1595392944.301,-138.184,-41.992,-23.926,-19.043,0.000,0
1595392944.305,60.059,-39.551,-6.836,-29.785,0.000,0
1595392944.308,162.598,-34.668,-12.207,-19.531,0.000,0
1595392944.312,-23.926,-40.039,-22.461,-11.230,0.000,0
1595392944.316,-157.715,-42.480,-20.996,-17.090,0.000,0
1595392944.320,1.953,-36.133,-13.184,-19.043,0.000,0
1595392944.324,164.062,-35.156,-12.695,-28.809,0.000,0
1595392944.328,45.410,-38.086,-21.484,-22.949,0.000,0
1595392944.332,-143.555,-44.434,-33.691,-16.113,0.000,0
1595392944.336,-53.223,-45.410,-29.785,-20.020,0.000,0
1595392944.340,155.762,-41.016,-21.484,-18.066,0.000,0
1595392944.344,106.934,-38.574,-20.996,-19.531,0.000,0
1595392944.348,-107.422,-41.016,-21.973,-14.648,0.000,0
1595392944.351,-105.957,-41.504,-32.227,-13.672,0.000,0
1595392944.355,116.699,-34.668,-17.578,-15.137,0.000,0
1595392944.359,160.156,-30.762,-14.648,-13.184,0.000,0
1595392944.363,-48.828,-23.926,-14.160,-6.836,0.000,0
1595392944.367,-131.348,-21.973,-24.902,5.859,0.000,0
1595392944.371,55.664,-25.879,-24.902,-3.418,0.000,0
1595392944.375,174.805,-25.879,-18.066,-16.602,0.000,0
1595392944.379,13.672,-22.949,-15.625,-1.953,0.000,0
1595392944.383,-143.066,-24.902,-22.461,-5.859,0.000,0
1595392944.387,-9.277,-26.855,-23.438,-10.742,0.000,0
1595392944.391,177.246,-18.555,-5.371,-7.324,0.000,0
1595392944.394,74.219,-15.625,-10.254,-11.719,0.000,0
1595392944.398,-130.371,-21.973,-31.250,-8.789,0.000,0
1595392944.402,-66.406,-22.461,-26.855,-7.812,0.000,0
1595392944.406,154.785,-12.695,-6.348,-9.277,0.000,0
1595392944.410,131.348,-12.695,-10.254,0.000,0.000,0
1595392944.414,-93.750,-20.020,-24.902,12.695,0.000,0
1595392944.418,-111.816,-22.949,-27.344,5.859,0.000,0
1595392944.422,112.793,-20.020,-4.395,-6.836,0.000,0
1595392944.426,172.363,-19.043,-11.719,-3.418,0.000,0
1595392944.430,-36.133,-20.996,-27.344,2.441,0.000,0
1595392944.433,-135.254,-19.531,-23.438,-3.906,0.000,0
1595392944.437,49.316,-15.625,2.441,-7.812,0.000,0
1595392944.441,177.246,-16.113,-0.488,-8.789,0.000,0
1595392944.445,16.602,-20.508,-20.996,-2.441,0.000,0
1595392944.449,-136.719,-17.090,-21.973,1.465,0.000,0
1595392944.453,-18.555,-15.137,-8.789,-8.301,0.000,0
1595392944.457,167.480,-16.602,-5.859,-2.930,0.000,0
1595392944.461,84.961,-18.066,-11.719,3.906,0.000,0
1595392944.465,-126.953,-18.555,-14.648,-6.348,0.000,0
1595392944.469,-83.496,-20.996,-16.113,-13.672,0.000,0
1595392944.473,138.672,-23.926,-13.672,-17.090,0.000,0
1595392944.476,123.047,-28.809,-33.203,-7.324,0.000,0
1595392944.480,-106.445,-29.785,-25.879,-7.324,0.000,0
1595392944.484,-129.883,-22.949,-12.695,-3.418,0.000,0
1595392944.488,90.332,-21.484,-7.324,-6.348,0.000,0
1595392944.492,163.086,-23.438,-4.395,-24.902,0.000,0
1595392944.496,-33.203,-26.855,-7.324,-16.602,0.000,0
1595392944.500,-143.066,-24.902,-18.066,-5.859,0.000,0
1595392944.504,31.250,-20.020,-14.160,-10.254,0.000,0
1595392944.508,169.434,-20.508,-15.137,-9.766,0.000,0
1595392944.512,21.973,-21.484,-19.531,-11.230,0.000,0
1595392944.516,-146.973,-24.902,-29.297,-12.207,0.000,0
1595392944.519,-36.621,-27.344,-31.738,-17.578,0.000,0
1595392944.523,164.551,-25.879,-15.137,-15.137,0.000,0
1595392944.527,93.262,-28.809,-12.695,-9.766,0.000,0
1595392944.531,-119.629,-31.738,-20.020,-3.906,0.000,0
1595392944.535,-93.262,-28.809,-35.645,-6.348,0.000,0
1595392944.539,126.953,-18.555,-19.043,-13.672,0.000,0
1595392944.543,138.672,-21.484,-9.277,-9.766,0.000,0
1595392944.547,-77.637,-25.391,-20.508,-2.441,0.000,0
1595392944.551,-127.930,-23.438,-27.832,2.441,0.000,0
1595392944.555,72.754,-24.414,-8.301,-3.418,0.000,0
1595392944.558,162.109,-21.973,-0.977,-13.184,0.000,0
1595392944.562,-25.391,-25.879,-12.207,-12.207,0.000,0
1595392944.566,-153.320,-31.738,-19.043,-2.930,0.000,0
1595392944.570,3.418,-39.551,-11.719,-4.395,0.000,0
1595392944.574,167.480,-44.434,3.906,7.812,0.000,0
1595392944.578,46.387,-39.551,-5.371,13.184,0.000,0
1595392944.582,-140.625,-28.809,-30.273,1.465,0.000,0
1595392944.586,-47.852,-16.113,-12.207,-6.836,0.000,0
1595392944.590,158.203,-14.648,2.930,-10.742,0.000,0
1595392944.594,101.074,-16.602,-17.090,-20.508,0.000,0
1595392944.598,-118.652,-12.695,-32.227,-23.438,0.000,0
1595392944.601,-92.285,-5.371,-31.250,-19.531,0.000,0
1595392944.605,131.348,-3.418,-10.254,-17.090,0.000,0
1595392944.609,147.949,-11.719,-16.113,-9.277,0.000,0
1595392944.613,-67.383,-20.020,-24.414,-7.324,0.000,0
1595392944.617,-130.371,-19.043,-19.043,-6.836,0.000,0
1595392944.621,68.848,-16.113,-9.766,-9.277,0.000,0
1595392944.625,174.316,-16.602,-22.461,-3.418,0.000,0
1595392944.629,1.953,-15.625,-25.879,2.441,0.000,0
1595392944.633,-142.090,-14.648,-19.043,-10.254,0.000,0
1595392944.637,-1.465,-20.996,-19.043,-12.207,0.000,0
1595392944.641,174.805,-21.973,-16.602,-5.371,0.000,0
1595392944.644,69.824,-16.602,-14.648,-4.395,0.000,0
1595392944.648,-128.906,-18.066,-18.555,-5.859,0.000,0
1595392944.652,-44.434,-17.090,-21.484,-0.977,0.000,0
1595392944.656,145.996,-18.555,-13.184,4.395,0.000,0
1595392944.660,88.867,-20.996,-10.254,3.418,0.000,0
1595392944.664,-97.656,-21.973,-15.137,4.395,0.000,0
1595392944.668,-101.074,-28.809,-23.926,3.906,0.000,0
1595392944.672,114.258,-32.227,-17.090,7.812,0.000,0
1595392944.676,166.504,-26.855,-5.371,5.371,0.000,0
1595392944.680,-47.363,-24.414,-9.766,4.883,0.000,0
1595392944.683,-136.719,-22.949,-24.902,13.184,0.000,0
1595392944.687,53.223,-20.508,-6.348,3.418,0.000,0
1595392944.691,179.199,-19.043,13.184,0.488,0.000,0
1595392944.695,22.461,-18.555,8.301,15.625,0.000,0
1595392944.699,-135.254,-23.926,-11.230,13.672,0.000,0
1595392944.703,-3.418,-27.344,-6.836,1.953,0.000,0
1595392944.707,180.176,-25.391,-0.977,1.953,0.000,0
1595392944.711,82.031,-23.438,-6.348,6.836,0.000,0
1595392944.715,-118.652,-24.902,-22.949,10.742,0.000,0
1595392944.719,-68.848,-25.391,-24.414,5.371,0.000,0
1595392944.723,146.484,-17.090,4.883,4.883,0.000,0
1595392944.726,135.254,-16.602,4.883,19.043,0.000,0
1595392944.730,-96.191,-26.855,-1.465,8.301,0.000,0
1595392944.734,-117.188,-29.297,-7.324,-1.465,0.000,0
1595392944.738,111.328,-20.996,11.230,4.395,0.000,0
1595392944.742,175.781,-20.508,16.602,2.441,0.000,0
1595392944.746,-30.762,-23.438,9.277,-1.953,0.000,0
1595392944.750,-109.863,-23.926,4.395,-0.488,0.000,0
1595392944.754,74.707,-23.438,7.324,-4.395,0.000,0
1595392944.758,173.340,-24.902,3.418,-10.742,0.000,0
1595392944.762,22.949,-25.391,0.977,-1.953,0.000,0
1595392944.766,-135.742,-18.555,1.953,0.488,0.000,0
1595392944.769,-14.160,-12.695,4.395,-2.441,0.000,0
1595392944.773,174.805,-20.996,-0.977,-3.418,0.000,0
1595392944.777,86.914,-27.344,-7.324,-3.418,0.000,0
1595392944.781,-124.023,-27.344,-0.488,-1.465,0.000,0
1595392944.785,-80.078,-28.809,5.859,-3.906,0.000,0
1595392944.789,146.484,-25.391,6.836,0.488,0.000,0
1595392944.793,139.160,-22.949,0.977,8.301,0.000,0
1595392944.797,-87.891,-22.949,3.906,9.766,0.000,0
1595392944.801,-124.023,-20.508,-6.348,0.488,0.000,0
1595392944.805,85.449,-25.391,-13.184,-2.930,0.000,0
1595392944.808,165.039,-28.809,-18.066,0.000,0.000,0
1595392944.812,-23.926,-27.344,-1.465,-3.906,0.000,0
1595392944.816,-144.531,-31.250,-12.207,-4.395,0.000,0
1595392944.820,25.879,-27.832,-13.184,0.000,0.000,0
1595392944.824,178.711,-25.879,-0.488,0.000,0.000,0
1595392944.828,41.504,-27.344,-4.883,-2.441,0.000,0
1595392944.832,-134.277,-27.344,-20.996,9.277,0.000,0
1595392944.836,-32.227,-25.879,-20.020,9.277,0.000,0
1595392944.840,159.668,-22.949,-8.301,-0.977,0.000,0
1595392944.844,94.238,-20.996,-15.625,-0.488,0.000,0
1595392944.848,-118.652,-26.855,-36.133,-2.441,0.000,0
1595392944.851,-94.238,-29.297,-41.504,-7.324,0.000,0
1595392944.855,127.441,-22.461,-5.371,-10.742,0.000,0
1595392944.859,140.625,-22.461,2.930,-17.578,0.000,0
1595392944.863,-78.613,-27.832,-21.973,-6.836,0.000,0
1595392944.867,-133.789,-24.414,-29.785,-0.977,0.000,0
1595392944.871,72.754,-18.555,-0.977,-19.043,0.000,0
1595392944.875,178.223,-18.555,1.953,-14.160,0.000,0
1595392944.879,3.906,-21.484,-15.625,3.906,0.000,0
1595392944.883,-137.207,-23.438,-23.926,2.930,0.000,0
1595392944.887,6.348,-22.949,-9.277,-8.301,0.000,0
1595392944.891,175.293,-19.531,-4.883,-11.230,0.000,0
1595392944.894,55.664,-23.438,-21.484,-2.930,0.000,0
1595392944.898,-129.883,-29.785,-25.879,4.395,0.000,0
1595392944.902,-37.598,-23.438,-8.789,-6.348,0.000,0
1595392944.906,166.016,-20.508,2.441,-15.625,0.000,0
1595392944.910,117.188,-21.973,-9.766,1.465,0.000,0
1595392944.914,-101.562,-22.949,-15.137,12.695,0.000,0
1595392944.918,-101.074,-25.879,-11.230,-17.090,0.000,0
1595392944.922,121.582,-23.438,0.000,-24.902,0.000,0
1595392944.926,155.273,-21.973,-3.906,-5.859,0.000,0
1595392944.930,-66.895,-23.926,-4.395,-7.324,0.000,0
1595392944.933,-138.672,-29.785,-10.742,-10.742,0.000,0
1595392944.937,52.734,-32.715,-3.906,-11.230,0.000,0
1595392944.941,160.156,-28.320,-4.883,-14.648,0.000,0
1595392944.945,-13.672,-35.645,-14.160,-19.531,0.000,0
1595392944.949,-156.250,-37.109,-17.090,-19.531,0.000,0
1595392944.953,-7.812,-36.133,-14.160,-13.672,0.000,0
1595392944.957,163.086,-36.621,-7.812,-14.648,0.000,0
1595392944.961,54.688,-31.738,-3.906,-18.555,0.000,0
1595392944.965,-137.207,-34.668,-13.184,-7.812,0.000,0
1595392944.969,-66.406,-30.273,-18.555,-9.277,0.000,0
1595392944.973,141.602,-23.438,-10.742,-22.949,0.000,0
1595392944.976,104.492,-29.785,-7.324,-21.484,0.000,0
1595392944.980,-111.328,-31.250,-12.207,-6.836,0.000,0
1595392944.984,-117.676,-27.832,-24.414,-0.488,0.000,0
1595392944.988,97.656,-30.762,-12.207,-7.324,0.000,0
1595392944.992,155.273,-27.832,-10.742,-10.254,0.000,0
1595392944.996,-45.410,-23.438,-12.695,-0.977,0.000,0
1595392945.000,-143.066,-29.785,-29.785,7.812,0.000,0
1595392945.004,40.527,-28.320,-25.879,3.418,0.000,0
1595392945.008,166.504,-17.578,-7.324,-9.277,0.000,0
1595392945.012,3.418,-18.555,-11.230,-7.324,0.000,0
1595392945.016,-155.273,-27.832,-26.855,-9.277,0.000,0
1595392945.019,-24.414,-29.785,-21.484,-13.672,0.000,0
1595392945.023,158.691,-28.809,-12.207,-11.719,0.000,0
1595392945.027,72.266,-28.320,-26.367,-10.254,0.000,0
1595392945.031,-126.465,-27.344,-31.738,-10.254,0.000,0
1595392945.035,-76.172,-23.926,-23.438,-8.301,0.000,0
1595392945.039,142.578,-20.996,-7.324,-20.508,0.000,0
1595392945.043,119.629,-29.297,-14.648,-24.902,0.000,0
1595392945.047,-109.863,-35.645,-28.809,-10.742,0.000,0
1595392945.051,-139.160,-30.273,-22.461,-9.766,0.000,0
1595392945.055,69.336,-32.715,-6.348,-17.578,0.000,0
1595392945.058,143.066,-30.762,-17.090,-22.461,0.000,0
1595392945.062,-49.316,-27.344,-24.902,-22.461,0.000,0
1595392945.066,-156.738,-30.762,-30.762,-19.043,0.000,0
1595392945.070,20.996,-26.367,-20.020,-14.648,0.000,0
1595392945.074,161.621,-29.297,-17.090,-16.113,0.000,0
1595392945.078,19.043,-32.715,-27.832,-20.996,0.000,0
1595392945.082,-151.855,-35.645,-36.621,-18.066,0.000,0
1595392945.086,-50.293,-38.574,-41.504,-20.508,0.000,0
1595392945.090,141.113,-34.668,-31.738,-20.996,0.000,0
1595392945.094,76.172,-30.273,-24.902,-8.789,0.000,0
1595392945.098,-128.906,-29.785,-34.180,-3.906,0.000,0
1595392945.101,-96.680,-32.715,-32.715,-17.578,0.000,0
1595392945.105,125.000,-29.297,-28.809,-13.184,0.000,0
1595392945.109,132.324,-26.855,-28.809,-5.371,0.000,0
1595392945.113,-85.449,-27.832,-11.230,-6.348,0.000,0
1595392945.117,-136.719,-30.762,-24.414,-3.906,0.000,0
1595392945.121,66.895,-33.691,-21.973,-8.789,0.000,0
1595392945.125,164.551,-27.344,-12.207,-10.742,0.000,0
1595392945.129,-28.320,-28.320,-20.020,-11.719,0.000,0
1595392945.133,-157.227,-31.738,-35.156,-7.324,0.000,0
1595392945.137,8.789,-28.320,-30.762,-8.301,0.000,0
1595392945.141,159.180,-28.320,-12.695,-25.391,0.000,0
1595392945.144,27.832,-32.227,-11.230,-20.020,0.000,0
1595392945.148,-145.020,-31.738,-28.320,-10.254,0.000,0
1595392945.152,-45.898,-30.273,-26.855,-13.184,0.000,0
1595392945.156,156.738,-27.344,-10.254,-8.301,0.000,0
1595392945.160,104.492,-24.902,-10.742,-2.930,0.000,0
1595392945.164,-108.887,-25.879,-22.461,-5.859,0.000,0
1595392945.168,-91.797,-25.391,-21.484,-12.207,0.000,0
1595392945.172,116.211,-25.391,-4.395,-13.672,0.000,0
1595392945.176,132.324,-30.273,-10.742,-13.184,0.000,0
1595392945.180,-72.754,-33.203,-29.297,-8.789,0.000,0
1595392945.183,-139.160,-32.227,-32.227,-2.930,0.000,0
1595392945.187,59.570,-34.180,-8.789,-15.137,0.000,0
1595392945.191,158.691,-36.621,-16.602,-18.555,0.000,0
1595392945.195,-16.602,-37.598,-23.438,-13.184,0.000,0
1595392945.199,-157.715,-38.086,-20.508,-17.090,0.000,0
1595392945.203,-9.277,-32.715,-7.324,-20.508,0.000,0
1595392945.207,166.016,-25.391,-1.953,-15.137,0.000,0
1595392945.211,50.781,-25.391,-9.277,-8.301,0.000,0
1595392945.215,-137.695,-26.855,-17.090,-5.371,0.000,0
1595392945.219,-58.105,-28.320,-17.578,-7.812,0.000,0
1595392945.223,153.320,-29.297,-11.230,-6.348,0.000,0
1595392945.226,110.840,-28.809,-18.066,5.371,0.000,0
1595392945.230,-120.605,-32.227,-20.020,-0.488,0.000,0
1595392945.234,-118.652,-33.203,-22.461,-12.695,0.000,0
1595392945.238,108.887,-30.273,-8.301,-6.348,0.000,0
1595392945.242,143.066,-26.855,-10.254,-15.137,0.000,0
1595392945.246,-68.848,-28.809,-18.066,-23.438,0.000,0
1595392945.250,-145.996,-32.715,-29.297,-13.184,0.000,0
1595392945.254,50.293,-30.762,-22.461,-7.324,0.000,0
1595392945.258,174.805,-29.297,-15.137,-6.348,0.000,0
1595392945.262,9.766,-31.738,-11.230,0.000,0.000,0
1595392945.266,-142.090,-37.109,-24.902,-5.859,0.000,0
1595392945.269,-7.812,-36.621,-33.203,-8.789,0.000,0
1595392945.273,164.551,-35.156,-17.090,-10.254,0.000,0
1595392945.277,63.477,-33.691,-9.277,-15.625,0.000,0
1595392945.281,-126.953,-34.180,-22.461,-14.648,0.000,0
1595392945.285,-59.082,-35.156,-31.250,-11.719,0.000,0
1595392945.289,151.855,-33.691,-18.555,-12.695,0.000,0
1595392945.293,124.512,-35.156,-16.602,-13.672,0.000,0
1595392945.297,-107.910,-39.551,-26.367,-12.695,0.000,0
1595392945.301,-125.000,-35.645,-31.250,-20.996,0.000,0
1595392945.305,100.098,-23.438,-7.324,-20.020,0.000,0
1595392945.308,162.109,-17.578,-7.812,-11.230,0.000,0
1595392945.312,-42.969,-23.926,-22.461,-6.836,0.000,0
1595392945.316,-152.832,-31.250,-29.785,-10.742,0.000,0
1595392945.320,25.879,-32.227,-11.719,-22.461,0.000,0
1595392945.324,164.062,-28.320,2.930,-17.578,0.000,0
1595392945.328,11.230,-29.785,-16.113,-11.230,0.000,0
1595392945.332,-152.832,-31.738,-35.156,-17.578,0.000,0
1595392945.336,-25.879,-22.949,-13.184,-11.719,0.000,0
1595392945.340,175.293,-18.066,4.395,-4.395,0.000,0
1595392945.344,90.820,-20.996,-11.719,-13.672,0.000,0
1595392945.348,-122.070,-23.926,-24.902,-16.602,0.000,0
1595392945.351,-72.266,-23.926,-18.555,-16.602,0.000,0
1595392945.355,151.367,-20.996,-0.977,-13.672,0.000,0
1595392945.359,145.996,-20.508,-8.301,-3.906,0.000,0
1595392945.363,-72.754,-24.414,-18.066,6.836,0.000,0
1595392945.367,-109.863,-21.484,-23.438,-4.395,0.000,0
1595392945.371,96.191,-17.090,-15.625,-20.996,0.000,0
1595392945.375,173.340,-20.508,-14.160,-19.043,0.000,0
1595392945.379,-16.602,-20.020,-21.484,-5.859,0.000,0
1595392945.383,-128.418,-18.066,-20.020,0.488,0.000,0
1595392945.387,39.551,-17.090,-1.953,-2.441,0.000,0
1595392945.391,186.035,-15.137,-0.488,-1.465,0.000,0
1595392945.394,47.363,-21.484,-5.371,0.488,0.000,0
1595392945.398,-125.000,-24.414,-10.254,0.977,0.000,0
1595392945.402,-23.926,-20.508,-17.090,-3.418,0.000,0
1595392945.406,172.363,-22.461,-15.625,-0.977,0.000,0
1595392945.410,100.098,-23.926,-7.812,6.348,0.000,0
1595392945.414,-119.629,-29.297,-11.230,0.977,0.000,0
1595392945.418,-88.379,-30.273,-25.391,-3.418,0.000,0
1595392945.422,131.348,-29.297,-19.043,-0.977,0.000,0
1595392945.426,140.137,-31.738,-15.625,2.930,0.000,0
1595392945.430,-80.078,-34.668,-10.254,-1.953,0.000,0
1595392945.433,-127.930,-35.156,-22.461,-1.465,0.000,0
1595392945.437,84.473,-32.227,-17.090,-0.488,0.000,0
1595392945.441,177.246,-28.809,-1.465,-6.836,0.000,0
1595392945.445,0.000,-20.996,-8.789,5.371,0.000,0
1595392945.449,-126.465,-21.484,-20.996,7.324,0.000,0
1595392945.453,24.902,-28.320,-8.789,-1.465,0.000,0
1595392945.457,176.758,-29.297,-5.859,0.000,0.000,0
1595392945.461,45.410,-28.320,-18.066,4.395,0.000,0
1595392945.465,-137.207,-32.715,-22.461,2.930,0.000,0
1595392945.469,-46.387,-34.668,-17.578,-3.418,0.000,0
1595392945.473,158.691,-31.738,-9.766,4.395,0.000,0
1595392945.476,106.445,-32.715,-9.277,11.230,0.000,0
1595392945.480,-110.352,-40.527,-19.043,8.789,0.000,0
1595392945.484,-95.703,-41.016,-25.391,0.977,0.000,0
1595392945.488,122.070,-26.367,-5.859,-14.648,0.000,0
1595392945.492,155.273,-24.414,-10.742,-10.742,0.000,0
1595392945.496,-60.547,-31.738,-30.762,-5.859,0.000,0
1595392945.500,-146.973,-28.320,-35.645,-15.137,0.000,0
1595392945.504,51.758,-26.367,-12.207,-11.230,0.000,0
1595392945.508,168.945,-25.879,-1.465,0.977,0.000,0
1595392945.512,0.977,-29.785,-7.812,4.883,0.000,0
1595392945.516,-141.113,-33.203,-12.207,-0.977,0.000,0
1595392945.519,-1.465,-31.250,-4.883,-3.418,0.000,0
1595392945.523,171.387,-31.738,-10.254,-2.930,0.000,0
1595392945.527,63.965,-29.785,-19.531,1.953,0.000,0
1595392945.531,-126.953,-25.879,-20.996,-2.930,0.000,0
1595392945.535,-53.711,-29.785,-20.020,-8.301,0.000,0
1595392945.539,149.414,-33.203,-18.066,-5.859,0.000,0
1595392945.543,117.188,-26.367,-17.090,0.977,0.000,0
1595392945.547,-98.633,-27.832,-19.531,-1.953,0.000,0
1595392945.551,-101.074,-31.250,-24.902,-5.371,0.000,0
1595392945.555,120.117,-29.297,-17.090,-0.488,0.000,0
1595392945.558,167.969,-26.367,-15.625,4.395,0.000,0
1595392945.562,-40.039,-20.020,-3.906,12.695,0.000,0
1595392945.566,-135.254,-20.508,-14.648,10.254,0.000,0
1595392945.570,49.805,-21.973,-12.207,-5.371,0.000,0
1595392945.574,180.176,-18.555,-4.395,-10.742,0.000,0
1595392945.578,19.531,-21.484,-8.301,4.395,0.000,0
1595392945.582,-136.719,-29.297,-20.508,10.254,0.000,0
1595392945.586,-11.230,-27.832,-13.184,-6.836,0.000,0
1595392945.590,166.016,-21.484,-0.977,-0.488,0.000,0
1595392945.594,70.312,-22.461,-6.836,1.465,0.000,0
1595392945.598,-133.301,-27.832,-17.578,-4.395,0.000,0
1595392945.601,-78.125,-33.691,-27.344,-2.441,0.000,0
1595392945.605,135.742,-30.762,-1.953,-6.836,0.000,0
1595392945.609,115.723,-27.832,6.836,-13.672,0.000,0
1595392945.613,-99.121,-27.832,-11.719,-6.348,0.000,0
1595392945.617,-114.258,-27.344,-19.531,-2.930,0.000,0
1595392945.621,96.191,-28.809,-2.930,-8.301,0.000,0
1595392945.625,156.250,-29.785,0.488,-4.883,0.000,0
1595392945.629,-45.410,-31.250,-2.930,3.906,0.000,0
1595392945.633,-150.391,-29.785,-12.695,11.719,0.000,0
1595392945.637,25.391,-24.902,-0.977,1.465,0.000,0
1595392945.641,164.551,-17.090,10.254,-2.930,0.000,0
1595392945.644,23.438,-14.160,-2.930,15.137,0.000,0
1595392945.648,-140.625,-14.160,-8.789,13.672,0.000,0
1595392945.652,-26.367,-15.625,1.465,2.930,0.000,0
1595392945.656,167.969,-17.578,5.371,3.906,0.000,0
1595392945.660,93.262,-19.531,-9.766,8.301,0.000,0
1595392945.664,-119.629,-18.555,-19.531,7.324,0.000,0
1595392945.668,-75.195,-12.695,-4.395,2.441,0.000,0
1595392945.672,148.438,-14.648,0.000,4.395,0.000,0
1595392945.676,144.531,-17.578,-13.672,3.906,0.000,0
1595392945.680,-74.707,-21.973,-15.625,-6.348,0.000,0
1595392945.683,-111.328,-23.438,-16.113,-3.906,0.000,0
1595392945.687,93.262,-23.438,-7.812,-1.953,0.000,0
1595392945.691,171.875,-22.949,-7.324,-6.348,0.000,0
1595392945.695,-11.230,-17.578,-6.836,-5.859,0.000,0
1595392945.699,-134.766,-21.973,-19.043,-4.395,0.000,0
1595392945.703,24.414,-26.367,-23.926,-9.766,0.000,0
1595392945.707,173.340,-24.902,-17.090,-11.719,0.000,0
1595392945.711,37.598,-25.391,-14.160,-9.766,0.000,0
1595392945.715,-129.883,-22.461,-17.090,-6.836,0.000,0
1595392945.719,-25.879,-18.555,-16.602,-2.441,0.000,0
1595392945.723,161.621,-17.578,-7.812,-3.906,0.000,0
1595392945.726,100.586,-17.578,-4.395,-10.254,0.000,0
1595392945.730,-110.352,-22.461,-11.719,-6.836,0.000,0
1595392945.734,-95.215,-30.762,-17.578,-6.348,0.000,0
1595392945.738,120.605,-30.762,-8.789,-6.348,0.000,0
1595392945.742,133.789,-26.855,-2.930,-4.883,0.000,0
1595392945.746,-89.844,-27.344,-12.207,-14.160,0.000,0
1595392945.750,-152.344,-30.762,-33.691,-15.137,0.000,0
1595392945.754,58.105,-27.344,-18.555,-20.996,0.000,0
1595392945.758,156.738,-18.066,-5.371,-24.902,0.000,0
1595392945.762,-27.344,-20.020,-9.766,-13.672,0.000,0
1595392945.766,-154.297,-24.902,-26.367,-0.977,0.000,0
1595392945.769,-4.883,-23.438,-19.043,-5.859,0.000,0
1595392945.773,159.180,-20.996,2.441,-15.137,0.000,0
1595392945.777,41.016,-25.391,-2.930,-7.812,0.000,0
1595392945.781,-147.949,-29.785,-15.625,5.371,0.000,0
1595392945.785,-61.035,-25.391,-16.113,3.418,0.000,0
1595392945.789,151.367,-23.926,-3.906,0.977,0.000,0
1595392945.793,112.305,-23.926,-12.207,6.836,0.000,0
1595392945.797,-108.398,-27.832,-28.320,9.277,0.000,0
1595392945.801,-104.492,-29.785,-19.531,5.859,0.000,0
1595392945.805,117.188,-25.879,0.000,1.465,0.000,0
1595392945.808,154.297,-21.484,-9.766,-2.441,0.000,0
1595392945.812,-55.664,-21.484,-10.742,7.324,0.000,0
1595392945.816,-132.324,-20.508,-8.301,15.137,0.000,0
1595392945.820,54.199,-21.484,-2.930,4.883,0.000,0
1595392945.824,171.387,-22.461,-6.836,3.418,0.000,0
1595392945.828,11.719,-24.902,-19.043,7.812,0.000,0
1595392945.832,-142.578,-30.762,-30.762,9.277,0.000,0
1595392945.836,-3.418,-23.438,-17.090,10.742,0.000,0
1595392945.840,172.852,-19.043,-16.113,2.441,0.000,0
1595392945.844,59.570,-23.438,-24.902,0.000,0.000,0
1595392945.848,-132.812,-22.461,-21.484,-6.836,0.000,0
1595392945.851,-67.383,-26.367,-15.137,-9.766,0.000,0
1595392945.855,140.137,-25.391,0.000,-10.254,0.000,0
1595392945.859,114.746,-17.090,-2.930,-14.648,0.000,0
1595392945.863,-101.562,-14.648,-10.742,-7.812,0.000,0
1595392945.867,-108.398,-16.602,-23.438,-3.418,0.000,0
1595392945.871,111.816,-15.137,-10.254,-10.254,0.000,0
1595392945.875,160.156,-12.695,-9.277,-18.555,0.000,0
1595392945.879,-43.457,-18.066,-18.066,-8.789,0.000,0
1595392945.883,-139.160,-23.926,-25.879,-2.441,0.000,0
1595392945.887,36.133,-25.391,-22.461,-13.184,0.000,0
1595392945.891,169.434,-19.043,-7.812,-13.184,0.000,0
1595392945.894,17.578,-20.020,-1.953,-10.742,0.000,0
1595392945.898,-143.555,-27.344,-19.531,-10.742,0.000,0
1595392945.902,-13.184,-22.461,-20.020,-11.719,0.000,0
1595392945.906,177.246,-13.184,7.324,-8.789,0.000,0
1595392945.910,91.309,-14.648,3.418,3.418,0.000,0
1595392945.914,-103.516,-14.160,-16.602,4.395,0.000,0
1595392945.918,-64.453,-10.742,-20.996,-7.324,0.000,0
1595392945.922,143.555,-6.836,-7.324,-13.672,0.000,0
1595392945.926,129.883,-12.207,-17.578,-9.766,0.000,0
1595392945.930,-93.750,-21.973,-30.273,-5.371,0.000,0
1595392945.933,-116.699,-23.438,-24.414,-5.371,0.000,0
1595392945.937,94.727,-23.926,-1.953,2.441,0.000,0
1595392945.941,163.086,-24.414,-4.395,-2.930,0.000,0
1595392945.945,-35.645,-24.902,-22.461,-3.906,0.000,0
1595392945.949,-148.926,-26.367,-19.531,1.465,0.000,0
1595392945.953,25.879,-20.996,7.812,-11.230,0.000,0
1595392945.957,167.969,-14.648,3.418,-3.418,0.000,0
1595392945.961,20.996,-23.438,-14.160,1.953,0.000,0
1595392945.965,-142.578,-32.715,-18.555,-5.859,0.000,0
1595392945.969,-31.738,-30.273,-12.695,-7.812,0.000,0
1595392945.973,160.156,-27.832,-8.789,-2.441,0.000,0
1595392945.976,83.984,-26.367,-14.160,2.930,0.000,0
1595392945.980,-124.512,-27.344,-23.926,-8.301,0.000,0
1595392945.984,-90.332,-34.180,-29.297,-20.020,0.000,0
1595392945.988,120.117,-35.645,-22.461,-16.113,0.000,0
1595392945.992,121.582,-37.109,-30.273,-4.883,0.000,0
1595392945.996,-88.379,-38.086,-19.043,-3.418,0.000,0
1595392946.000,-137.207,-38.574,-14.648,-10.254,0.000,0
1595392946.004,62.500,-34.668,-10.254,-7.324,0.000,0
1595392946.008,157.227,-30.762,0.000,-2.441,0.000,0
1595392946.012,-20.996,-33.203,2.930,-2.441,0.000,0
1595392946.016,-142.090,-32.227,-3.418,6.348,0.000,0
1595392946.019,15.137,-26.855,1.465,7.324,0.000,0
1595392946.023,169.434,-26.367,5.859,-0.977,0.000,0
1595392946.027,39.551,-23.926,9.766,0.000,0.000,0
1595392946.031,-136.230,-21.484,1.953,5.859,0.000,0
1595392946.035,-36.621,-26.367,-0.488,12.695,0.000,0
1595392946.039,161.621,-26.367,13.672,2.930,0.000,0
1595392946.043,99.609,-25.391,13.184,-2.441,0.000,0
1595392946.047,-117.188,-30.762,1.953,-0.488,0.000,0
1595392946.051,-89.844,-30.273,-12.695,0.488,0.000,0
1595392946.055,129.395,-21.973,1.465,-3.418,0.000,0
1595392946.058,138.672,-19.043,9.766,-0.977,0.000,0
1595392946.062,-75.195,-23.926,-1.953,-0.488,0.000,0
1595392946.066,-145.020,-19.043,-20.996,-19.531,0.000,0
1595392946.070,56.641,-14.648,-2.441,-19.531,0.000,0
1595392946.074,165.039,-18.555,11.230,-8.301,0.000,0
1595392946.078,-14.160,-26.367,-8.301,-8.301,0.000,0
1595392946.082,-152.344,-27.832,-25.879,-5.859,0.000,0
1595392946.086,-7.812,-21.973,-5.371,-11.230,0.000,0
1595392946.090,159.668,-23.926,3.418,-23.926,0.000,0
1595392946.094,54.688,-25.391,-9.766,-18.555,0.000,0
1595392946.098,-141.113,-28.320,-20.508,-9.277,0.000,0
1595392946.101,-65.430,-28.320,-13.184,-16.113,0.000,0
1595392946.105,152.344,-24.414,-2.930,-24.414,0.000,0
1595392946.109,100.586,-27.344,-14.160,-17.578,0.000,0
1595392946.113,-129.395,-29.297,-28.809,-6.836,0.000,0
1595392946.117,-122.559,-29.785,-27.832,-11.230,0.000,0
1595392946.121,99.121,-30.273,-5.371,-14.648,0.000,0
1595392946.125,139.160,-34.180,-17.090,-11.230,0.000,0
1595392946.129,-75.195,-34.180,-30.762,-17.578,0.000,0
1595392946.133,-145.020,-25.879,-16.113,-17.578,0.000,0
1595392946.137,43.457,-21.973,-1.953,-9.277,0.000,0
1595392946.141,143.066,-20.996,-11.230,-23.926,0.000,0
1595392946.144,-13.184,-23.926,-23.438,-34.668,0.000,0
1595392946.148,-157.715,-26.367,-29.297,-30.762,0.000,0
1595392946.152,-25.879,-26.367,-22.949,-28.809,0.000,0
1595392946.156,156.250,-26.367,-19.043,-30.273,0.000,0
1595392946.160,47.363,-29.297,-24.902,-29.785,0.000,0
1595392946.164,-163.086,-33.203,-26.855,-14.160,0.000,0
1595392946.168,-95.215,-31.250,-27.344,-10.254,0.000,0
1595392946.172,125.977,-24.902,-23.438,-6.836,0.000,0
1595392946.176,119.141,-18.066,-7.324,-11.719,0.000,0
1595392946.180,-92.773,-13.672,-6.836,-22.949,0.000,0
1595392946.183,-134.277,-19.043,-21.973,-15.625,0.000,0
1595392946.187,89.355,-22.949,-9.766,-7.324,0.000,0
1595392946.191,166.504,-14.648,-5.859,-0.488,0.000,0
1595392946.195,-56.152,-22.949,-9.766,3.906,0.000,0
1595392946.199,-171.875,-37.598,-24.414,-0.977,0.000,0
1595392946.203,8.789,-30.273,-13.184,-12.207,0.000,0
1595392946.207,137.695,-24.414,-0.977,-15.625,0.000,0
1595392946.211,-13.672,-33.203,-10.742,-34.180,0.000,0
1595392946.215,-178.223,-35.645,-30.762,-48.340,0.000,0
1595392946.219,-56.641,-36.621,-23.438,-39.062,0.000,0
1595392946.223,131.348,-36.621,0.977,-16.113,0.000,0
1595392946.226,34.180,-35.645,-2.930,0.000,0.000,0
1595392946.230,-172.363,-36.621,-13.672,-18.066,0.000,0
1595392946.234,-103.516,-33.203,-16.602,-32.715,0.000,0
1595392946.238,119.141,-29.785,2.441,-15.137,0.000,0
1595392946.242,117.676,-34.180,-5.859,1.953,0.000,0
1595392946.246,-92.773,-34.180,-18.066,-13.672,0.000,0
1595392946.250,-128.418,-27.832,-15.137,-20.996,0.000,0
1595392946.254,80.566,-24.902,-3.906,-13.672,0.000,0
1595392946.258,165.039,-26.367,-8.301,-18.066,0.000,0
1595392946.262,-27.344,-30.762,-5.371,9.766,0.000,0
1595392946.266,-147.949,-28.320,-0.488,26.367,0.000,0
1595392946.269,27.344,-22.949,6.836,6.348,0.000,0
1595392946.273,171.387,-24.414,1.953,4.883,0.000,0
1595392946.277,34.180,-30.273,-15.625,5.859,0.000,0
1595392946.281,-141.113,-29.297,-14.160,-5.371,0.000,0
1595392946.285,-40.527,-29.297,-7.324,-5.371,0.000,0
1595392946.289,147.949,-34.180,-6.836,-11.230,0.000,0
1595392946.293,79.102,-31.250,-6.348,-0.488,0.000,0
1595392946.297,-119.629,-29.785,-12.207,13.184,0.000,0
1595392946.301,-92.773,-30.762,-21.973,-9.277,0.000,0
1595392946.305,114.258,-28.320,-15.625,-16.113,0.000,0
1595392946.308,130.371,-27.832,-7.812,3.906,0.000,0
1595392946.312,-64.941,-26.367,3.906,7.324,0.000,0
1595392946.316,-123.535,-25.879,-15.625,-3.418,0.000,0
1595392946.320,72.266,-30.762,-19.531,-6.836,0.000,0
1595392946.324,168.945,-31.738,-10.254,-8.789,0.000,0
1595392946.328,-21.973,-24.902,-6.836,-6.348,0.000,0
1595392946.332,-145.020,-24.414,-16.602,-14.648,0.000,0
1595392946.336,21.973,-25.391,-11.230,-21.973,0.000,0
1595392946.340,177.734,-22.461,-4.395,-16.113,0.000,0
1595392946.344,47.852,-26.367,-15.625,-11.719,0.000,0
1595392946.348,-136.230,-34.180,-32.715,-4.395,0.000,0
1595392946.351,-49.316,-31.250,-29.297,-7.812,0.000,0
1595392946.355,160.645,-28.320,-13.184,-13.184,0.000,0
1595392946.359,106.934,-29.297,-19.043,-19.531,0.000,0
1595392946.363,-107.910,-26.855,-31.738,-20.020,0.000,0
1595392946.367,-91.309,-25.879,-31.250,-18.066,0.000,0
1595392946.371,125.000,-24.414,-8.789,-16.602,0.000,0
1595392946.375,154.785,-24.902,-11.230,-15.137,0.000,0
1595392946.379,-61.523,-32.227,-27.344,-10.742,0.000,0
1595392946.383,-136.719,-35.156,-31.250,1.465,0.000,0
1595392946.387,61.035,-27.832,-1.465,-15.137,0.000,0
1595392946.391,185.547,-28.320,1.465,-17.578,0.000,0
1595392946.394,28.809,-40.039,-19.531,18.066,0.000,0
1595392946.398,-109.375,-31.738,-32.227,33.203,0.000,0
1595392946.402,-4.395,-17.090,-19.043,-20.996,0.000,0
1595392946.406,134.766,-16.602,-15.137,-69.336,0.000,0
1595392946.410,41.016,-20.020,-28.809,-41.992,0.000,0
1595392946.414,-145.020,-20.508,-34.180,-24.902,0.000,0
1595392946.418,-66.406,-15.137,-29.785,-46.387,0.000,0
1595392946.422,142.578,-12.207,-18.066,-53.711,0.000,0
1595392946.426,89.355,-18.555,-20.020,-49.805,0.000,0
1595392946.430,-135.742,-19.043,-30.273,-44.922,0.000,0
1595392946.433,-128.418,-14.648,-33.691,-48.828,0.000,0
1595392946.437,101.562,-10.742,-20.996,-34.180,0.000,0
1595392946.441,146.484,-11.719,-28.809,-26.367,0.000,0
1595392946.445,-53.711,-16.113,-36.621,-40.039,0.000,0
1595392946.449,-144.531,-20.508,-40.527,-36.621,0.000,0
1595392946.453,19.043,-23.926,-38.086,-37.598,0.000,0
1595392946.457,151.855,-22.461,-43.945,-34.180,0.000,0
1595392946.461,16.113,-21.484,-40.527,-21.484,0.000,0
1595392946.465,-133.789,-18.555,-37.109,-23.926,0.000,0
1595392946.469,-13.184,-19.043,-39.062,-26.855,0.000,0
1595392946.473,151.367,-20.996,-29.785,-18.066,0.000,0
1595392946.476,78.613,-15.137,-26.855,-37.109,0.000,0
1595392946.480,-109.863,-15.137,-32.715,-27.344,0.000,0
1595392946.484,-67.383,-19.531,-33.691,6.348,0.000,0
1595392946.488,139.648,-20.508,-20.508,-0.977,0.000,0
1595392946.492,129.883,-21.484,-17.578,-17.578,0.000,0
1595392946.496,-84.473,-26.855,-26.367,-27.832,0.000,0
1595392946.500,-111.328,-27.832,-38.574,-29.785,0.000,0
1595392946.504,96.191,-26.367,-29.785,-23.926,0.000,0
1595392946.508,154.785,-25.391,-25.391,-20.996,0.000,0
1595392946.512,-41.504,-29.297,-27.832,-16.113,0.000,0
1595392946.516,-154.297,-40.527,-51.758,-25.391,0.000,0
1595392946.519,34.668,-34.180,-38.574,-33.203,0.000,0
1595392946.523,185.059,-21.973,-9.277,-13.672,0.000,0
1595392946.527,18.555,-23.926,-14.648,-7.812,0.000,0
1595392946.531,-142.578,-27.832,-31.250,-2.441,0.000,0
1595392946.535,-14.160,-22.949,-31.738,-15.625,0.000,0
1595392946.539,174.805,-16.113,-10.742,-30.273,0.000,0
1595392946.543,89.355,-20.508,-12.207,-5.859,0.000,0
1595392946.547,-119.141,-20.508,-36.621,7.812,0.000,0
1595392946.551,-74.219,-15.137,-28.809,-5.371,0.000,0
1595392946.555,153.809,-18.066,-4.395,-10.254,0.000,0
1595392946.558,160.645,-20.996,-14.648,2.441,0.000,0
1595392946.562,-70.801,-23.438,-21.973,15.137,0.000,0
1595392946.566,-120.117,-24.902,-22.461,-2.930,0.000,0
1595392946.570,112.305,-19.531,-12.207,-6.836,0.000,0
1595392946.574,200.195,-20.996,-10.742,-5.371,0.000,0
1595392946.578,-8.789,-23.926,-9.766,-4.883,0.000,0
1595392946.582,-132.812,-27.344,-20.508,6.836,0.000,0
1595392946.586,21.484,-28.320,-6.836,6.348,0.000,0
1595392946.590,174.805,-28.809,-5.371,12.207,0.000,0
1595392946.594,60.547,-26.367,-17.578,15.625,0.000,0
1595392946.598,-112.793,-22.949,-13.184,2.441,0.000,0
1595392946.601,-20.020,-23.438,-4.883,5.859,0.000,0
1595392946.605,180.176,-20.996,2.930,0.000,0.000,0
1595392946.609,125.488,-21.973,-7.324,1.465,0.000,0
1595392946.613,-87.402,-21.973,-10.742,15.137,0.000,0
1595392946.617,-72.754,-24.902,-16.113,4.883,0.000,0
1595392946.621,140.625,-20.996,-3.418,-1.465,0.000,0
1595392946.625,148.438,-19.531,-6.348,1.953,0.000,0
1595392946.629,-68.359,-27.832,-22.461,-1.953,0.000,0
1595392946.633,-127.441,-28.320,-33.203,-9.277,0.000,0
1595392946.637,69.336,-24.414,-22.949,-16.602,0.000,0
1595392946.641,171.875,-26.367,-7.324,-14.160,0.000,0
1595392946.644,-5.371,-30.762,-11.719,-3.418,0.000,0
1595392946.648,-147.461,-34.668,-31.738,0.488,0.000,0
1595392946.652,0.000,-30.762,-22.461,-10.254,0.000,0
1595392946.656,176.758,-23.438,-0.488,-20.996,0.000,0
1595392946.660,63.965,-24.414,-10.254,-12.207,0.000,0
1595392946.664,-131.348,-29.297,-29.297,4.883,0.000,0
1595392946.668,-44.922,-28.320,-20.020,1.953,0.000,0
1595392946.672,160.156,-23.438,-7.812,-15.137,0.000,0
1595392946.676,113.281,-24.414,-16.602,-12.695,0.000,0
1595392946.680,-102.539,-30.762,-32.715,0.000,0.000,0
1595392946.683,-100.098,-27.344,-33.691,4.395,0.000,0
1595392946.687,122.559,-22.949,-6.348,-4.883,0.000,0
1595392946.691,159.180,-31.250,-17.090,-3.418,0.000,0
1595392946.695,-48.828,-32.227,-29.785,0.000,0.000,0
1595392946.699,-124.512,-29.785,-25.391,-3.906,0.000,0
1595392946.703,65.430,-26.367,-5.371,-2.441,0.000,0
1595392946.707,179.688,-22.461,-5.859,4.395,0.000,0
1595392946.711,13.184,-22.949,-20.020,7.812,0.000,0
1595392946.715,-136.719,-23.438,-22.461,18.066,0.000,0
1595392946.719,0.488,-22.461,-13.672,7.812,0.000,0
1595392946.723,174.805,-21.484,-11.230,3.906,0.000,0
1595392946.726,64.941,-23.926,-20.508,16.113,0.000,0
1595392946.730,-129.883,-25.879,-16.602,7.812,0.000,0
1595392946.734,-61.523,-23.438,-11.230,-6.836,0.000,0
1595392946.738,147.949,-24.414,-4.395,-6.348,0.000,0
1595392946.742,115.723,-26.855,-10.254,-2.930,0.000,0
1595392946.746,-104.980,-26.367,-18.066,0.977,0.000,0
1595392946.750,-117.676,-28.809,-20.996,1.953,0.000,0
1595392946.754,97.168,-25.879,-11.230,-6.348,0.000,0
1595392946.758,162.598,-22.949,-6.836,-2.441,0.000,0
1595392946.762,-37.598,-27.344,-6.348,8.301,0.000,0
1595392946.766,-137.695,-27.344,-16.602,-4.395,0.000,0
1595392946.769,42.969,-25.879,-20.508,-11.230,0.000,0
1595392946.773,169.434,-25.879,-9.277,0.000,0.000,0
1595392946.777,22.949,-24.414,2.930,1.953,0.000,0
1595392946.781,-137.695,-25.391,-13.184,5.371,0.000,0
1595392946.785,-20.996,-27.344,-20.020,0.977,0.000,0
1595392946.789,158.691,-29.297,-9.766,-3.418,0.000,0
1595392946.793,62.500,-29.785,-5.371,1.953,0.000,0
1595392946.797,-130.859,-23.926,-15.625,0.000,0.000,0
1595392946.801,-75.684,-22.949,-25.879,0.000,0.000,0
1595392946.805,133.789,-23.438,-8.301,4.883,0.000,0
1595392946.808,126.953,-23.438,-6.348,-4.883,0.000,0
1595392946.812,-91.797,-27.344,-22.461,-7.324,0.000,0
1595392946.816,-120.605,-21.484,-30.273,-2.930,0.000,0
1595392946.820,88.867,-14.648,-9.766,-1.465,0.000,0
1595392946.824,166.016,-14.648,5.859,3.906,0.000,0
1595392946.828,-22.949,-15.625,-1.953,3.418,0.000,0
1595392946.832,-141.113,-14.648,-20.508,-0.977,0.000,0
1595392946.836,24.414,-16.113,-3.418,-6.836,0.000,0
1595392946.840,178.223,-21.973,1.953,-8.789,0.000,0
1595392946.844,32.715,-26.855,-11.230,-3.418,0.000,0
1595392946.848,-145.508,-25.879,-19.531,0.488,0.000,0
1595392946.851,-32.715,-23.926,-18.555,0.488,0.000,0
1595392946.855,166.992,-20.020,-15.137,-5.371,0.000,0
1595392946.859,119.629,-14.648,-21.973,12.695,0.000,0
1595392946.863,-91.797,-21.484,-23.926,19.531,0.000,0
1595392946.867,-93.750,-25.391,-13.672,-9.277,0.000,0
1595392946.871,117.676,-20.020,5.859,-12.695,0.000,0
1595392946.875,134.766,-24.902,-5.371,11.230,0.000,0
1595392946.879,-88.379,-36.621,-15.137,13.184,0.000,0
1595392946.883,-144.531,-44.922,-11.230,-1.953,0.000,0
1595392946.887,62.500,-47.852,3.418,-3.418,0.000,0
1595392946.891,153.809,-45.898,-11.230,-4.395,0.000,0
1595392946.894,-31.250,-43.457,-20.508,5.371,0.000,0
1595392946.898,-150.879,-37.598,-16.113,2.930,0.000,0
1595392946.902,17.578,-30.762,-6.348,-1.465,0.000,0
1595392946.906,177.246,-27.344,0.488,8.301,0.000,0
1595392946.910,51.270,-30.762,-10.742,13.672,0.000,0
1595392946.914,-133.301,-34.668,-17.090,19.043,0.000,0
1595392946.918,-46.387,-37.109,-16.602,16.113,0.000,0
1595392946.922,155.273,-39.551,-18.066,12.207,0.000,0
1595392946.926,95.215,-37.109,-17.578,6.836,0.000,0
1595392946.930,-120.117,-41.016,-21.484,8.789,0.000,0
1595392946.933,-99.121,-44.922,-31.250,9.766,0.000,0
1595392946.937,115.723,-40.039,-20.020,5.859,0.000,0
1595392946.941,138.672,-35.156,-14.160,0.488,0.000,0
1595392946.945,-68.848,-36.621,-16.602,1.465,0.000,0
1595392946.949,-132.324,-39.551,-30.273,5.859,0.000,0
1595392946.953,65.430,-38.574,-24.414,5.371,0.000,0
1595392946.957,173.828,-34.668,-14.160,2.930,0.000,0
1595392946.961,0.488,-35.645,-17.578,2.930,0.000,0
1595392946.965,-139.648,-40.039,-37.109,7.324,0.000,0
1595392946.969,3.418,-36.621,-32.715,-1.465,0.000,0
1595392946.973,166.504,-33.691,-10.742,-7.324,0.000,0
1595392946.976,48.340,-36.621,-20.508,-0.977,0.000,0
1595392946.980,-148.926,-33.691,-34.180,-8.301,0.000,0
1595392946.984,-68.848,-30.762,-22.949,-19.531,0.000,0
1595392946.988,144.043,-32.715,-5.859,-16.113,0.000,0
1595392946.992,106.445,-34.668,-16.113,-7.324,0.000,0
1595392946.996,-106.445,-34.180,-24.414,-3.418,0.000,0
1595392947.000,-108.887,-33.691,-24.414,-1.465,0.000,0
1595392947.004,107.422,-35.645,-12.695,-1.465,0.000,0
1595392947.008,153.809,-38.086,-15.137,0.000,0.000,0
1595392947.012,-60.547,-35.645,-24.414,9.766,0.000,0
1595392947.016,-149.902,-32.715,-22.461,4.395,0.000,0
1595392947.019,41.992,-32.715,-9.766,-12.207,0.000,0
1595392947.023,160.156,-32.715,-19.043,-15.137,0.000,0
1595392947.027,-1.953,-36.621,-25.879,-2.930,0.000,0
1595392947.031,-145.996,-34.668,-29.297,-1.465,0.000,0
1595392947.035,-14.160,-28.809,-24.414,-5.371,0.000,0
1595392947.039,161.133,-31.738,-20.508,0.977,0.000,0
1595392947.043,63.477,-31.738,-25.879,7.812,0.000,0
1595392947.047,-137.207,-26.367,-27.832,3.906,0.000,0
1595392947.051,-74.707,-24.414,-26.367,-3.906,0.000,0
1595392947.055,139.648,-26.855,-28.809,-3.906,0.000,0
1595392947.058,125.000,-21.973,-29.297,-0.977,0.000,0
1595392947.062,-90.332,-21.973,-12.695,-6.348,0.000,0
1595392947.066,-117.188,-26.855,-30.273,-8.301,0.000,0
1595392947.070,94.238,-20.996,-20.996,-4.395,0.000,0
1595392947.074,155.273,-20.996,-9.277,1.465,0.000,0
1595392947.078,-38.086,-22.949,-9.766,5.859,0.000,0
1595392947.082,-138.184,-20.996,-16.602,2.441,0.000,0
1595392947.086,42.969,-19.531,-16.113,-1.953,0.000,0
1595392947.090,182.617,-18.555,-10.742,1.953,0.000,0
1595392947.094,21.973,-18.066,-11.230,3.418,0.000,0
1595392947.098,-140.137,-17.578,-28.809,-4.395,0.000,0
1595392947.101,-13.672,-18.555,-27.832,-9.277,0.000,0
1595392947.105,166.504,-18.555,-5.371,-9.766,0.000,0
1595392947.109,83.496,-20.508,-6.348,-5.371,0.000,0
1595392947.113,-123.047,-21.973,-25.391,4.883,0.000,0
1595392947.117,-87.891,-19.531,-28.320,7.812,0.000,0
1595392947.121,126.465,-19.531,-10.254,-3.906,0.000,0
1595392947.125,124.512,-25.391,-10.742,-4.395,0.000,0
1595392947.129,-88.867,-30.762,-20.508,6.836,0.000,0
1595392947.133,-127.441,-31.250,-30.762,0.977,0.000,0
1595392947.137,82.520,-28.320,-8.789,-9.766,0.000,0
1595392947.141,172.363,-23.926,-4.395,0.488,0.000,0
1595392947.144,-18.066,-26.367,-20.996,13.184,0.000,0
1595392947.148,-137.695,-29.785,-31.738,5.371,0.000,0
1595392947.152,32.715,-25.879,-12.207,-1.953,0.000,0
1595392947.156,180.176,-24.902,3.906,-0.977,0.000,0
1595392947.160,37.598,-26.855,-14.648,-0.977,0.000,0
1595392947.164,-134.766,-19.531,-25.391,4.395,0.000,0
1595392947.168,-30.762,-14.648,-4.395,8.301,0.000,0
1595392947.172,163.574,-20.020,-4.395,3.418,0.000,0
1595392947.176,97.168,-22.949,-14.160,8.789,0.000,0
1595392947.180,-116.699,-23.926,-14.648,21.484,0.000,0
1595392947.183,-90.820,-26.367,-15.625,12.695,0.000,0
1595392947.187,126.953,-27.344,-4.395,-2.441,0.000,0
1595392947.191,138.184,-33.691,-14.160,-5.371,0.000,0
1595392947.195,-75.195,-38.574,-19.043,-2.441,0.000,0
1595392947.199,-132.324,-33.691,-18.066,-8.789,0.000,0
1595392947.203,68.359,-28.809,-10.742,-6.348,0.000,0
1595392947.207,167.480,-25.879,-10.742,-4.395,0.000,0
1595392947.211,-12.695,-24.414,-9.766,-5.859,0.000,0
1595392947.215,-141.602,-26.367,-13.672,-7.324,0.000,0
1595392947.219,7.324,-25.879,-22.461,-13.672,0.000,0
1595392947.223,163.086,-24.902,-16.113,-15.137,0.000,0
1595392947.226,44.922,-26.855,-6.836,-11.230,0.000,0
1595392947.230,-135.742,-30.273,-14.648,-9.277,0.000,0
1595392947.234,-49.805,-33.691,-23.438,-9.766,0.000,0
1595392947.238,144.043,-35.156,-20.508,-5.371,0.000,0
1595392947.242,91.797,-34.668,-8.789,-12.695,0.000,0
1595392947.246,-123.047,-38.086,-7.324,-17.090,0.000,0
1595392947.250,-116.699,-42.969,-26.367,-14.648,0.000,0
1595392947.254,94.727,-41.992,-15.625,-17.090,0.000,0
1595392947.258,129.395,-32.715,0.488,-18.555,0.000,0
1595392947.262,-70.312,-30.762,-10.254,-8.789,0.000,0
1595392947.266,-139.160,-31.738,-15.137,-8.789,0.000,0
1595392947.269,55.664,-29.297,2.930,-11.230,0.000,0
1595392947.273,167.969,-27.344,5.371,-7.812,0.000,0
1595392947.277,3.418,-28.809,-7.324,-5.371,0.000,0
1595392947.281,-139.160,-27.344,-19.531,-1.465,0.000,0
1595392947.285,-6.836,-25.879,-15.137,-6.348,0.000,0
1595392947.289,163.574,-27.344,-0.977,-11.230,0.000,0
1595392947.293,58.105,-26.855,-8.789,-1.465,0.000,0
1595392947.297,-141.113,-32.715,-24.902,0.000,0.000,0
1595392947.301,-69.824,-38.574,-9.277,-7.812,0.000,0
1595392947.305,145.508,-36.621,1.953,-3.418,0.000,0
1595392947.308,112.793,-31.250,-10.254,-1.953,0.000,0
1595392947.312,-113.281,-30.762,-21.973,-7.812,0.000,0
1595392947.316,-122.559,-31.738,-22.949,-6.348,0.000,0
1595392947.320,96.680,-28.320,-12.207,-6.836,0.000,0
1595392947.324,146.973,-29.785,-23.926,-3.906,0.000,0
1595392947.328,-51.758,-30.762,-27.832,10.254,0.000,0
1595392947.332,-142.090,-28.809,-22.461,7.812,0.000,0
1595392947.336,41.504,-29.297,-7.324,-7.324,0.000,0
1595392947.340,168.945,-24.414,-8.789,-8.789,0.000,0
1595392947.344,12.695,-27.344,-15.625,-1.953,0.000,0
1595392947.348,-147.949,-33.691,-17.090,-1.953,0.000,0
1595392947.351,-30.762,-37.598,-26.855,-8.789,0.000,0
1595392947.355,158.203,-34.180,-19.531,-20.020,0.000,0
1595392947.359,74.219,-23.438,-12.207,-17.090,0.000,0
1595392947.363,-133.301,-21.484,-13.672,-11.719,0.000,0
1595392947.367,-81.055,-25.879,-20.508,-5.859,0.000,0
1595392947.371,136.230,-24.902,-16.113,-4.883,0.000,0
1595392947.375,128.418,-27.344,-13.672,-4.395,0.000,0
1595392947.379,-96.191,-32.227,-21.484,-3.418,0.000,0
1595392947.383,-135.742,-36.621,-32.227,-12.207,0.000,0
1595392947.387,83.008,-34.668,-26.855,-8.301,0.000,0
1595392947.391,158.203,-28.320,-14.648,-15.137,0.000,0
1595392947.394,-35.156,-26.855,-3.418,-16.113,0.000,0
1595392947.398,-146.484,-32.227,-24.414,-12.695,0.000,0
1595392947.402,28.809,-31.738,-18.555,-14.648,0.000,0
1595392947.406,170.410,-30.762,-3.906,-13.184,0.000,1
1595392947.410,20.020,-34.668,-12.207,-12.695,0.000,0
1595392947.414,-144.531,-35.645,-24.902,-5.859,0.000,0
1595392947.418,-33.691,-32.715,-12.695,-4.395,0.000,0
1595392947.422,151.367,-28.320,-2.441,-8.789,0.000,0
1595392947.426,81.055,-25.879,-16.602,-5.859,0.000,0
1595392947.430,-124.512,-28.809,-31.738,-0.488,0.000,0
1595392947.433,-98.145,-31.738,-29.297,-8.301,0.000,0
1595392947.437,118.164,-25.879,-0.488,-20.020,0.000,0
1595392947.441,131.348,-23.926,-4.883,-13.184,0.000,0
1595392947.445,-80.566,-26.855,-13.184,-4.883,0.000,0
1595392947.449,-124.023,-25.879,-10.742,-8.789,0.000,0
1595392947.453,84.961,-21.973,2.930,-13.184,0.000,0
1595392947.457,164.551,-24.902,-0.488,-14.160,0.000,0
1595392947.461,-21.973,-29.785,-9.766,-7.324,0.000,0
1595392947.465,-144.531,-27.344,-17.578,-2.930,0.000,0
1595392947.469,15.137,-22.949,-12.207,-5.371,0.000,0
1595392947.473,168.945,-26.367,-12.207,-9.277,0.000,0
1595392947.476,33.203,-30.273,-22.949,0.000,0.000,0
1595392947.480,-144.043,-29.297,-22.461,5.371,0.000,0
1595392947.484,-38.574,-24.902,-11.719,0.488,0.000,0
1595392947.488,168.945,-26.367,-14.160,-2.930,0.000,0
1595392947.492,111.816,-27.344,-24.902,-2.441,0.000,0
1595392947.496,-104.492,-25.879,-24.414,-0.977,0.000,0
1595392947.500,-88.379,-26.367,-28.320,-11.719,0.000,0
1595392947.504,133.301,-20.020,-20.996,-11.230,0.000,0
1595392947.508,155.273,-17.090,-19.043,-2.930,0.000,0
1595392947.512,-62.500,-16.602,-19.531,-1.953,0.000,0
1595392947.516,-130.859,-20.020,-29.297,0.000,0.000,0
1595392947.519,68.359,-23.438,-31.738,-3.906,0.000,0
1595392947.523,169.434,-18.555,-28.809,-9.766,0.000,0
1595392947.527,-14.648,-14.160,-11.719,-13.672,0.000,0
1595392947.531,-150.879,-18.066,-15.625,-16.602,0.000,0
1595392947.535,-5.371,-19.043,-22.949,-20.020,0.000,0
1595392947.539,155.762,-16.113,-12.695,-21.973,0.000,0
1595392947.543,45.410,-11.230,-9.277,-20.508,0.000,0
1595392947.547,-137.207,-11.719,-21.484,-12.207,0.000,0
1595392947.551,-58.105,-15.625,-22.461,-16.113,0.000,0
1595392947.555,145.508,-15.625,-9.277,-21.973,0.000,0
1595392947.558,83.496,-18.066,-16.113,-21.484,0.000,0
1595392947.562,-120.117,-22.461,-34.180,-20.508,0.000,0
1595392947.566,-100.098,-24.902,-41.504,-14.160,0.000,0
1595392947.570,92.285,-22.461,-18.066,-17.578,0.000,0
1595392947.574,135.254,-23.926,-9.766,-28.320,0.000,0
1595392947.578,-69.824,-27.832,-22.949,-28.320,0.000,0
1595392947.582,-160.645,-31.250,-34.668,-25.391,0.000,0
1595392947.586,27.344,-28.809,-7.812,-26.855,0.000,0
1595392947.590,157.227,-25.879,7.812,-22.461,0.000,0
1595392947.594,-5.371,-34.180,-5.371,-3.906,0.000,0
1595392947.598,-157.715,-35.645,-15.137,-6.348,0.000,0
1595392947.601,-24.414,-32.715,-7.324,-22.949,0.000,0
1595392947.605,145.996,-37.598,-4.883,-25.391,0.000,0
1595392947.609,43.457,-40.527,-16.602,-21.973,0.000,0
1595392947.613,-147.461,-39.062,-27.344,-21.484,0.000,0
1595392947.617,-79.590,-34.180,-19.531,-28.320,0.000,0
1595392947.621,130.371,-32.715,-7.324,-27.832,0.000,0
1595392947.625,107.422,-34.668,-21.484,-20.996,0.000,0
1595392947.629,-111.328,-35.156,-29.297,-19.531,0.000,0
1595392947.633,-131.836,-37.109,-23.438,-20.020,0.000,0
1595392947.637,81.543,-36.621,-5.371,-18.555,0.000,0
1595392947.641,143.066,-33.691,-5.371,-13.672,0.000,0
1595392947.644,-54.688,-28.809,-3.418,-6.348,0.000,0
1595392947.648,-153.320,-27.832,-2.441,-8.789,0.000,0
1595392947.652,28.320,-29.297,2.930,-13.184,0.000,0
1595392947.656,161.133,-33.691,-14.648,-10.742,0.000,0
1595392947.660,26.855,-31.250,-27.832,-4.883,0.000,0
1595392947.664,-121.582,-27.344,-22.461,3.906,0.000,0
1595392947.668,-15.625,-29.297,-7.324,-4.883,0.000,0
1595392947.672,152.832,-32.715,4.395,-16.602,0.000,0
1595392947.676,56.641,-36.621,6.348,-9.766,0.000,0
1595392947.680,-146.484,-41.504,-1.465,-9.277,0.000,0
1595392947.683,-99.609,-46.875,-11.719,-17.090,0.000,0
1595392947.687,118.652,-46.387,5.859,-13.672,0.000,0
1595392947.691,110.840,-48.828,8.789,-6.348,0.000,0
1595392947.695,-105.469,-51.270,-4.883,-5.859,0.000,0
1595392947.699,-136.719,-46.875,-15.137,-1.953,0.000,0
1595392947.703,71.289,-40.039,0.488,-3.418,0.000,0
1595392947.707,151.367,-33.691,0.488,6.348,0.000,0
1595392947.711,-40.527,-34.668,-3.906,16.113,0.000,0
1595392947.715,-151.855,-41.504,-20.508,12.207,0.000,0
1595392947.719,21.484,-37.109,-16.113,9.277,0.000,0
1595392947.723,171.387,-28.320,7.324,4.883,0.000,0
1595392947.726,35.156,-36.133,-0.977,13.184,0.000,0
1595392947.730,-136.230,-41.016,-11.719,19.043,0.000,0
1595392947.734,-30.762,-41.016,-5.371,10.254,0.000,0
1595392947.738,166.016,-37.598,6.348,8.789,0.000,0
1595392947.742,98.633,-33.691,4.395,17.578,0.000,0
1595392947.746,-110.352,-37.598,-8.789,20.996,0.000,0
1595392947.750,-87.891,-39.062,-10.254,11.719,0.000,0
1595392947.754,119.629,-36.133,0.977,-2.441,0.000,0
1595392947.758,133.789,-41.016,-5.859,0.000,0.000,0
1595392947.762,-79.102,-41.504,-6.836,8.789,0.000,0
1595392947.766,-132.812,-39.551,-4.883,0.000,0.000,0
1595392947.769,75.195,-38.086,8.789,1.465,0.000,0
1595392947.773,162.109,-32.227,7.812,10.254,0.000,0
1595392947.777,-29.297,-33.691,-14.160,14.648,0.000,0
1595392947.781,-149.414,-34.668,-15.137,16.113,0.000,0
1595392947.785,9.277,-32.715,3.418,7.324,0.000,0
1595392947.789,166.016,-34.668,-1.465,0.977,0.000,0
1595392947.793,38.574,-34.668,-15.625,1.953,0.000,0
1595392947.797,-144.043,-28.809,-22.949,0.488,0.000,0
1595392947.801,-54.199,-26.855,-23.926,0.488,0.000,0
1595392947.805,146.973,-32.227,-16.113,-1.953,0.000,0
1595392947.808,94.238,-30.762,-11.719,-4.395,0.000,0
1595392947.812,-117.188,-30.762,-18.066,-3.906,0.000,0
1595392947.816,-109.375,-35.645,-26.855,6.348,0.000,0
1595392947.820,103.516,-31.738,-14.648,1.953,0.000,0
1595392947.824,132.812,-28.320,-7.324,-14.648,0.000,0
1595392947.828,-72.266,-25.879,-4.883,-7.812,0.000,0
1595392947.832,-143.066,-25.391,-17.090,-6.836,0.000,0
1595392947.836,48.340,-25.879,-11.719,-12.695,0.000,0
1595392947.840,165.039,-20.996,1.953,-5.859,0.000,0
1595392947.844,-5.859,-22.949,-1.953,2.930,0.000,0
1595392947.848,-148.438,-29.785,-21.484,1.465,0.000,0
1595392947.851,-8.789,-32.715,-34.668,-0.977,0.000,0
1595392947.855,161.133,-26.367,-17.090,-5.859,0.000,0
1595392947.859,50.781,-22.461,-0.977,-7.812,0.000,0
1595392947.863,-147.949,-30.273,-22.949,-5.371,0.000,0
1595392947.867,-68.359,-32.715,-31.738,-20.508,0.000,0
1595392947.871,145.020,-26.855,-9.277,-29.297,0.000,0
1595392947.875,106.445,-28.320,-4.395,-20.996,0.000,0
1595392947.879,-112.793,-32.227,-16.602,-11.230,0.000,0
1595392947.883,-119.141,-28.809,-22.949,-13.672,0.000,0
1595392947.887,104.492,-23.438,6.836,-13.672,0.000,0
1595392947.891,155.762,-27.832,9.766,-3.418,0.000,0
1595392947.894,-56.152,-40.039,-8.789,-1.953,0.000,0
1595392947.898,-136.230,-44.922,-19.531,7.324,0.000,0
1595392947.902,48.828,-29.297,-1.953,-3.906,0.000,0
1595392947.906,162.109,-17.578,0.977,-28.809,0.000,0
1595392947.910,-0.488,-23.926,-26.367,-18.555,0.000,0
1595392947.914,-151.855,-25.879,-36.621,-2.930,0.000,0
1595392947.918,-17.578,-17.090,-15.625,-9.277,0.000,0
1595392947.922,159.668,-16.602,-14.648,-22.949,0.000,0
1595392947.926,65.918,-17.090,-30.273,-18.066,0.000,0
1595392947.930,-132.324,-16.602,-28.320,-7.812,0.000,0
1595392947.933,-74.707,-18.066,-17.090,-9.766,0.000,0
1595392947.937,140.625,-19.043,-15.625,-8.789,0.000,0
1595392947.941,120.117,-22.949,-29.297,-0.977,0.000,0
1595392947.945,-111.816,-27.344,-31.250,-9.766,0.000,0
1595392947.949,-137.207,-27.344,-32.715,-23.926,0.000,0
1595392947.953,81.543,-23.926,-21.484,-14.648,0.000,0
1595392947.957,148.926,-21.484,-20.020,-10.742,0.000,0
1595392947.961,-44.434,-25.879,-19.531,-15.137,0.000,0
1595392947.965,-146.484,-26.367,-23.438,-0.977,0.000,0
1595392947.969,30.762,-20.996,-22.949,-5.859,0.000,0
1595392947.973,168.457,-20.508,-17.090,-20.508,0.000,0
1595392947.976,22.949,-22.461,-16.113,-12.207,0.000,0
1595392947.980,-147.949,-33.691,-27.344,-14.160,0.000,0
1595392947.984,-32.715,-40.039,-30.273,-23.926,0.000,0
1595392947.988,164.551,-33.203,-19.531,-16.113,0.000,0
1595392947.992,77.148,-26.855,-15.137,-12.207,0.000,0
1595392947.996,-129.883,-23.438,-18.555,-8.301,0.000,0
1595392948.000,-80.078,-26.855,-33.691,-0.977,0.000,0
1595392948.004,129.883,-24.414,-29.297,-11.719,0.000,0
1595392948.008,125.488,-20.020,-21.973,-20.508,0.000,0
1595392948.012,-88.867,-26.855,-23.438,-14.160,0.000,0
1595392948.016,-127.441,-33.203,-32.715,-2.930,0.000,0
1595392948.019,86.426,-27.832,-16.113,0.977,0.000,0
1595392948.023,167.480,-26.855,-7.812,-1.953,0.000,0
1595392948.027,-21.484,-30.762,-20.508,-3.418,0.000,0
1595392948.031,-138.184,-32.715,-32.715,-2.930,0.000,0
1595392948.035,19.531,-33.203,-27.344,-8.301,0.000,0
1595392948.039,172.363,-31.250,-19.531,-14.648,0.000,0
1595392948.043,41.992,-28.809,-26.367,-6.836,0.000,0
1595392948.047,-138.184,-30.762,-41.504,1.465,0.000,0
1595392948.051,-39.551,-30.273,-25.391,-7.812,0.000,0
1595392948.055,153.809,-27.832,-4.883,-15.625,0.000,0
1595392948.058,92.285,-29.785,-20.996,-5.371,0.000,0
1595392948.062,-121.094,-31.250,-35.156,0.488,0.000,0
1595392948.066,-106.445,-31.250,-32.227,-10.254,0.000,0
1595392948.070,108.398,-31.250,-12.695,-17.578,0.000,0
1595392948.074,125.488,-21.973,-15.625,-12.695,0.000,0
1595392948.078,-74.707,-20.996,-29.297,-9.277,0.000,0
1595392948.082,-131.348,-22.949,-37.598,-9.277,0.000,0
1595392948.086,53.223,-22.949,-28.320,-16.113,0.000,0
1595392948.090,155.762,-27.344,-29.297,-18.555,0.000,0
1595392948.094,-19.531,-21.973,-28.320,-10.742,0.000,0
1595392948.098,-146.973,-20.508,-33.691,-6.836,0.000,0
1595392948.101,9.277,-24.902,-26.367,-8.789,0.000,0
1595392948.105,163.574,-28.320,-24.414,-5.859,0.000,0
1595392948.109,39.062,-31.738,-26.367,-3.906,0.000,0
1595392948.113,-142.578,-29.785,-18.066,-11.719,0.000,0
1595392948.117,-54.688,-26.855,-18.066,-17.090,0.000,0
1595392948.121,152.344,-24.902,-13.672,-22.949,0.000,0
1595392948.125,104.004,-19.531,-17.578,-16.113,0.000,0
1595392948.129,-112.305,-23.438,-23.438,-7.812,0.000,0
1595392948.133,-106.934,-28.320,-25.879,-10.742,0.000,0
1595392948.137,115.723,-22.949,-9.277,-8.301,0.000,0
1595392948.141,160.645,-14.648,-0.977,-1.953,0.000,0
1595392948.144,-48.828,-18.555,-5.371,6.348,0.000,0
1595392948.148,-125.488,-20.996,-26.367,5.371,0.000,0
1595392948.152,68.848,-17.090,-20.508,-0.488,0.000,0
1595392948.156,184.570,-13.672,-2.441,2.930,0.000,0
1595392948.160,11.230,-15.137,-5.371,6.348,0.000,0
1595392948.164,-140.625,-21.973,-28.320,11.230,0.000,0
1595392948.168,-0.977,-20.020,-25.391,8.301,0.000,0
1595392948.172,160.645,-15.625,-6.348,-2.441,0.000,0
1595392948.176,50.781,-26.367,-18.066,0.488,0.000,0
1595392948.180,-129.883,-30.273,-35.156,4.883,0.000,0
1595392948.183,-52.734,-19.531,-31.250,3.906,0.000,0
1595392948.187,166.016,-19.043,-9.277,1.953,0.000,0
1595392948.191,126.465,-29.785,-13.672,7.812,0.000,0
1595392948.195,-108.887,-40.527,-20.996,6.348,0.000,0
1595392948.199,-126.465,-43.945,-18.066,-4.883,0.000,0
1595392948.203,85.938,-43.457,3.906,-14.648,0.000,0
1595392948.207,141.602,-44.922,3.418,-9.277,0.000,0
1595392948.211,-65.430,-41.504,-4.883,-4.395,0.000,0
1595392948.215,-158.203,-38.086,-9.766,-13.672,0.000,0
1595392948.219,31.250,-35.156,-0.488,-15.137,0.000,0
1595392948.223,159.668,-33.691,-2.930,-8.301,0.000,0
1595392948.226,8.789,-38.574,-19.531,-4.883,0.000,0
1595392948.230,-149.414,-38.086,-20.508,-9.277,0.000,0
1595392948.234,-30.273,-33.203,-7.812,-15.625,0.000,0
1595392948.238,156.250,-33.203,-1.465,-5.371,0.000,0
1595392948.242,73.242,-34.668,0.000,9.766,0.000,0
1595392948.246,-128.418,-35.156,-5.859,3.418,0.000,0
1595392948.250,-83.008,-33.203,-8.789,-1.465,0.000,0
1595392948.254,132.812,-36.621,-7.812,6.348,0.000,0
1595392948.258,121.582,-38.086,-16.602,1.465,0.000,0
1595392948.262,-99.121,-34.180,-8.789,-4.883,0.000,0
1595392948.266,-125.977,-28.320,-11.230,2.930,0.000,0
1595392948.269,86.914,-26.855,-14.648,5.371,0.000,0
1595392948.273,159.180,-32.715,-17.578,-1.953,0.000,0
1595392948.277,-27.344,-26.855,-7.812,0.488,0.000,0
1595392948.281,-130.859,-23.926,-14.648,3.418,0.000,0
1595392948.285,35.645,-33.691,-19.043,-5.371,0.000,0
1595392948.289,178.711,-26.855,-5.859,-8.301,0.000,0
1595392948.293,40.527,-21.484,-10.254,1.465,0.000,0
1595392948.297,-127.441,-26.855,-25.391,-1.465,0.000,0
1595392948.301,-19.531,-32.227,-14.160,-5.859,0.000,0
1595392948.305,159.668,-38.086,-6.836,-3.906,0.000,0
1595392948.308,76.660,-39.551,-15.137,-13.184,0.000,0
1595392948.312,-121.582,-40.527,-22.949,-11.230,0.000,0
1595392948.316,-81.055,-41.504,-33.691,-11.230,0.000,0
1595392948.320,133.301,-37.598,-22.461,-20.508,0.000,0
1595392948.324,142.578,-30.273,-11.719,-18.066,0.000,0
1595392948.328,-74.707,-29.297,-27.832,-8.301,0.000,0
1595392948.332,-127.930,-31.738,-47.363,-6.836,0.000,0
1595392948.336,70.801,-32.715,-20.508,-17.578,0.000,0
1595392948.340,161.621,-32.715,-15.137,-24.902,0.000,0
1595392948.344,-22.461,-33.691,-26.367,-13.184,0.000,0
1595392948.348,-148.438,-33.203,-30.762,-3.418,0.000,0
1595392948.351,10.254,-33.203,-21.973,-6.836,0.000,0
1595392948.355,165.039,-35.645,-12.695,-8.301,0.000,0
1595392948.359,44.922,-33.203,-19.043,1.465,0.000,0
1595392948.363,-128.906,-31.250,-33.203,3.418,0.000,0
1595392948.367,-37.598,-32.227,-28.809,-10.254,0.000,0
1595392948.371,161.133,-30.273,-16.113,-16.113,0.000,0
1595392948.375,104.492,-27.832,-28.320,-5.859,0.000,0
1595392948.379,-111.816,-31.738,-41.504,1.953,0.000,0
1595392948.383,-104.492,-35.156,-36.621,-11.230,0.000,0
1595392948.387,112.793,-33.203,-18.555,-25.391,0.000,0
1595392948.391,139.648,-34.180,-33.203,-8.789,0.000,0
1595392948.394,-76.660,-33.691,-35.156,-1.465,0.000,0
1595392948.398,-133.301,-27.832,-21.973,-3.906,0.000,0
1595392948.402,85.449,-24.902,-12.695,4.395,0.000,0
1595392948.406,166.992,-28.809,-13.184,1.953,0.000,0
1595392948.410,-22.461,-29.297,-17.578,0.488,0.000,0
1595392948.414,-134.277,-26.367,-25.391,2.930,0.000,0
1595392948.418,3.906,-27.344,-16.602,-3.418,0.000,0
1595392948.422,167.480,-31.250,-12.207,-5.371,0.000,0
1595392948.426,54.199,-31.250,-8.301,-0.977,0.000,0
1595392948.430,-137.695,-30.273,-9.277,2.441,0.000,0
1595392948.433,-58.594,-33.691,-20.996,1.953,0.000,0
1595392948.437,148.926,-34.180,-20.508,-3.418,0.000,0
1595392948.441,104.004,-32.715,-22.949,-12.207,0.000,0
1595392948.445,-114.258,-35.645,-37.598,-11.230,0.000,0
1595392948.449,-116.211,-32.227,-51.270,-6.348,0.000,0
1595392948.453,105.469,-28.809,-32.715,-6.836,0.000,0
1595392948.457,157.715,-25.879,-34.668,-2.930,0.000,0
1595392948.461,-47.852,-21.973,-41.992,-2.441,0.000,0
1595392948.465,-136.230,-29.297,-52.734,-5.371,0.000,0
1595392948.469,45.898,-33.203,-40.039,1.953,0.000,0
1595392948.473,154.785,-26.367,-14.160,0.488,0.000,0
1595392948.476,-12.207,-27.832,-20.020,-6.348,0.000,0
1595392948.480,-162.109,-32.227,-31.738,-2.930,0.000,0
1595392948.484,-20.996,-29.785,-23.926,-7.812,0.000,0
1595392948.488,160.156,-26.367,-16.113,-9.766,0.000,0
1595392948.492,64.453,-24.902,-27.832,0.000,0.000,0
1595392948.496,-138.672,-26.855,-35.645,-6.348,0.000,0
1595392948.500,-69.336,-35.645,-31.250,-20.508,0.000,0
1595392948.504,154.297,-35.645,-20.508,-19.531,0.000,0
1595392948.508,112.305,-33.691,-21.973,-11.719,0.000,0
1595392948.512,-107.910,-37.598,-34.668,-2.930,0.000,0
1595392948.516,-125.977,-35.156,-36.621,-10.742,0.000,0
1595392948.519,86.914,-30.762,-19.531,-20.996,0.000,0
1595392948.523,155.762,-32.715,-26.855,-10.742,0.000,0
1595392948.527,-45.898,-38.086,-36.621,-1.953,0.000,0
1595392948.531,-157.227,-41.016,-39.551,-15.625,0.000,0
1595392948.535,25.391,-36.133,-29.297,-25.391,0.000,0
1595392948.539,163.574,-33.691,-34.668,-13.672,0.000,0
1595392948.543,17.090,-33.691,-39.062,-4.883,0.000,0
1595392948.547,-142.578,-34.668,-37.109,-16.113,0.000,0
1595392948.551,-24.902,-30.273,-26.367,-20.996,0.000,0
1595392948.555,163.086,-28.320,-23.438,-7.812,0.000,0
1595392948.558,80.566,-32.715,-34.180,2.930,0.000,0
1595392948.562,-123.535,-28.320,-22.949,-4.883,0.000,0
1595392948.566,-80.566,-33.691,-27.832,-6.348,0.000,0
1595392948.570,135.742,-35.645,-23.438,-3.418,0.000,0
1595392948.574,131.836,-31.250,-9.277,-7.324,0.000,0
1595392948.578,-85.938,-28.809,-4.883,-6.348,0.000,0
1595392948.582,-123.047,-27.344,-22.949,-8.301,0.000,0
1595392948.586,90.332,-23.926,-12.207,-8.301,0.000,0
1595392948.590,176.270,-18.555,5.371,-2.930,0.000,0
1595392948.594,-14.648,-18.066,3.906,0.000,0.000,0
1595392948.598,-136.719,-21.484,-11.719,-6.348,0.000,0
1595392948.601,28.320,-22.949,-10.254,-13.672,0.000,0
1595392948.605,177.734,-18.555,9.766,-8.301,0.000,0
1595392948.609,39.551,-20.508,18.066,-4.395,0.000,0
1595392948.613,-133.301,-30.273,2.930,-4.883,0.000,0
1595392948.617,-31.738,-25.879,4.883,-8.301,0.000,0
1595392948.621,163.574,-16.602,20.020,-9.277,0.000,0
1595392948.625,100.586,-17.578,17.090,1.953,0.000,0
1595392948.629,-110.840,-21.973,-0.977,6.348,0.000,0
1595392948.633,-84.473,-19.043,-4.395,9.277,0.000,0
1595392948.637,129.883,-19.043,17.090,7.812,0.000,0
1595392948.641,140.137,-21.484,8.789,-3.906,0.000,0
1595392948.644,-73.730,-23.438,0.488,-3.906,0.000,0
1595392948.648,-132.812,-29.785,0.488,-4.395,0.000,0
1595392948.652,70.312,-27.832,15.137,-1.953,0.000,0
1595392948.656,168.945,-23.438,16.602,-0.488,0.000,0
1595392948.660,-13.672,-28.320,-6.348,3.906,0.000,0
1595392948.664,-146.484,-27.832,-12.695,2.441,0.000,0
1595392948.668,12.207,-20.508,20.508,-6.348,0.000,0
1595392948.672,173.828,-22.461,25.879,0.488,0.000,0
1595392948.676,49.805,-26.855,9.277,12.695,0.000,0
1595392948.680,-131.348,-26.367,-0.488,9.766,0.000,0
1595392948.683,-47.852,-28.809,3.418,4.395,0.000,0
1595392948.687,150.391,-28.809,6.836,6.348,0.000,0
1595392948.691,104.980,-28.320,-6.836,0.488,0.000,0
1595392948.695,-107.910,-36.621,-14.160,-6.348,0.000,0
1595392948.699,-100.586,-33.203,-11.230,-4.883,0.000,0
1595392948.703,113.770,-25.391,-4.395,-4.883,0.000,0
1595392948.707,149.414,-24.902,-6.836,-5.371,0.000,0
1595392948.711,-52.734,-23.438,-2.930,8.301,0.000,0
1595392948.715,-130.859,-21.973,-6.836,11.719,0.000,0
1595392948.719,54.688,-27.344,-3.418,9.277,0.000,0
1595392948.723,166.016,-27.344,-4.395,8.789,0.000,0
1595392948.726,-5.371,-26.855,5.371,0.000,0.000,0
1595392948.730,-151.855,-32.715,-4.883,3.418,0.000,0
1595392948.734,-8.789,-33.203,-6.348,4.395,0.000,0
1595392948.738,162.598,-29.297,2.930,-1.953,0.000,0
1595392948.742,59.082,-29.785,-0.488,-3.418,0.000,0
1595392948.746,-129.883,-32.227,-3.906,2.930,0.000,0
1595392948.750,-59.570,-35.156,-4.883,9.766,0.000,0
1595392948.754,151.855,-35.156,1.953,4.395,0.000,0
1595392948.758,125.977,-29.785,2.441,0.488,0.000,0
1595392948.762,-95.215,-28.320,0.488,3.418,0.000,0
1595392948.766,-107.422,-27.344,-1.465,8.301,0.000,0
1595392948.769,110.840,-23.438,16.113,8.301,0.000,0
1595392948.773,161.621,-22.949,17.090,2.441,0.000,0
1595392948.777,-44.922,-24.414,4.883,0.488,0.000,0
1595392948.781,-135.742,-26.855,-22.461,-0.488,0.000,0
1595392948.785,39.062,-28.320,-14.648,-3.906,0.000,0
1595392948.789,156.250,-30.762,6.348,-10.254,0.000,0
1595392948.793,2.441,-33.203,-3.418,-14.648,0.000,0
1595392948.797,-149.414,-31.250,-19.531,-4.883,0.000,0
1595392948.801,-21.973,-22.949,-0.977,-0.977,0.000,0
1595392948.805,158.691,-19.531,13.184,-3.906,0.000,0
1595392948.808,66.406,-27.832,-6.348,-1.953,0.000,0
1595392948.812,-132.324,-28.320,-20.020,-2.930,0.000,0
1595392948.816,-76.660,-20.020,-12.695,-5.859,0.000,0
1595392948.820,140.137,-24.414,-1.465,-6.836,0.000,0
1595392948.824,131.348,-29.785,-10.742,-5.859,0.000,0
1595392948.828,-97.168,-30.273,-20.020,-5.371,0.000,0
1595392948.832,-124.512,-29.297,-26.367,-0.977,0.000,0
1595392948.836,94.727,-25.391,-7.812,-7.812,0.000,0
1595392948.840,154.785,-30.762,-17.090,-14.648,0.000,0
1595392948.844,-41.504,-34.180,-28.320,-4.395,0.000,0
1595392948.848,-146.484,-30.762,-20.508,-9.277,0.000,0
1595392948.851,23.438,-26.855,-13.672,-13.184,0.000,0
1595392948.855,158.691,-24.902,-9.277,-11.719,0.000,0
1595392948.859,16.113,-24.414,-14.648,-14.160,0.000,0
1595392948.863,-141.602,-25.879,-20.996,-11.719,0.000,0
1595392948.867,-29.785,-29.297,-16.602,-15.137,0.000,0
1595392948.871,156.738,-25.879,-9.277,-17.090,0.000,0
1595392948.875,80.566,-22.461,-11.230,-12.207,0.000,0
1595392948.879,-127.930,-24.902,-24.414,-5.859,0.000,0
1595392948.883,-89.844,-26.367,-26.855,-8.301,0.000,0
1595392948.887,126.465,-24.414,-7.324,-14.648,0.000,0
1595392948.891,129.395,-24.902,0.977,-12.207,0.000,0
1595392948.894,-82.031,-28.809,-5.371,-2.930,0.000,0
1595392948.898,-125.000,-31.250,-23.926,-2.930,0.000,0
1595392948.902,69.336,-33.203,-23.926,-8.789,0.000,0
1595392948.906,148.926,-28.809,-9.277,-10.254,0.000,0
1595392948.910,-35.645,-25.391,-3.418,-11.719,0.000,0
1595392948.914,-152.832,-30.273,-18.066,-9.766,0.000,0
1595392948.918,4.883,-31.250,-13.672,-11.230,0.000,0
1595392948.922,158.691,-21.973,-7.324,-14.648,0.000,0
1595392948.926,40.527,-20.996,-11.230,-4.883,0.000,0
1595392948.930,-139.648,-29.785,-27.832,3.418,0.000,0
1595392948.933,-48.340,-29.785,-28.320,-0.977,0.000,0
1595392948.937,152.832,-25.391,-0.977,-9.277,0.000,0
1595392948.941,98.633,-29.785,-13.672,-13.184,0.000,0
1595392948.945,-120.605,-34.668,-30.762,-9.766,0.000,0
1595392948.949,-106.445,-34.668,-30.762,-11.719,0.000,0
1595392948.953,116.699,-30.273,-10.254,-20.020,0.000,0
1595392948.957,137.695,-29.297,-12.695,-17.090,0.000,0
1595392948.961,-70.801,-28.320,-24.414,-6.836,0.000,0
1595392948.965,-131.348,-26.367,-26.367,-11.230,0.000,0
1595392948.969,62.988,-21.973,-6.836,-19.043,0.000,0
1595392948.973,166.016,-21.973,-9.766,-8.789,0.000,0
1595392948.976,-9.277,-26.367,-19.531,-6.348,0.000,0
1595392948.980,-138.672,-22.949,-19.531,1.953,0.000,0
1595392948.984,10.254,-18.555,-13.184,0.488,0.000,0
1595392948.988,169.922,-20.996,-6.348,-14.648,0.000,0
1595392948.992,56.152,-22.461,-23.926,-1.465,0.000,0
1595392948.996,-128.418,-24.902,-25.879,4.395,0.000,0
1595392949.000,-45.410,-25.391,-12.207,-2.441,0.000,0
1595392949.004,160.156,-18.555,-5.859,-0.488,0.000,0
1595392949.008,120.117,-15.625,-7.324,0.977,0.000,0
1595392949.012,-102.051,-14.648,-8.301,5.859,0.000,0
1595392949.016,-89.844,-18.555,-15.625,8.789,0.000,0
1595392949.019,130.859,-26.367,-13.672,3.418,0.000,0
1595392949.023,155.273,-22.461,-9.277,4.883,0.000,0
1595392949.027,-42.480,-14.160,-1.953,16.113,0.000,0
1595392949.031,-125.000,-16.602,-14.160,18.555,0.000,0
1595392949.035,56.152,-17.578,-22.461,1.465,0.000,0
1595392949.039,174.316,-10.742,-14.648,-8.301,0.000,0
1595392949.043,15.137,-11.230,-7.812,-0.977,0.000,0
1595392949.047,-128.418,-18.066,-17.090,-3.906,0.000,0
1595392949.051,-0.977,-26.367,-26.367,-4.883,0.000,0
1595392949.055,166.992,-31.738,-15.137,6.836,0.000,0
1595392949.058,77.637,-29.785,0.000,15.137,0.000,0
1595392949.062,-109.863,-23.926,-14.160,15.625,0.000,0
1595392949.066,-59.082,-24.902,-28.809,1.465,0.000,0
1595392949.070,140.137,-24.414,-15.137,-14.648,0.000,0
1595392949.074,123.047,-20.020,-13.672,-13.184,0.000,0
1595392949.078,-94.727,-21.484,-35.156,-16.602,0.000,0
1595392949.082,-111.328,-20.508,-49.805,-21.484,0.000,0
1595392949.086,101.074,-14.160,-20.996,-18.555,0.000,0
1595392949.090,152.344,-8.301,-14.160,-17.578,0.000,0
1595392949.094,-44.922,-10.254,-27.832,-16.602,0.000,0
1595392949.098,-144.043,-14.160,-37.109,-21.484,0.000,0
1595392949.101,36.621,-12.207,-23.438,-24.414,0.000,0
1595392949.105,172.363,-13.184,-13.672,-16.602,0.000,0
1595392949.109,18.066,-19.531,-24.414,-10.254,0.000,0
1595392949.113,-144.043,-23.438,-42.969,-9.277,0.000,0
1595392949.117,-26.367,-23.926,-33.691,-12.695,0.000,0
1595392949.121,157.715,-18.555,-15.625,-13.672,0.000,0
1595392949.125,75.684,-15.625,-29.297,-2.441,0.000,0
1595392949.129,-117.188,-20.996,-36.621,2.930,0.000,0
1595392949.133,-68.848,-20.508,-21.484,-9.277,0.000,0
1595392949.137,145.508,-18.066,-12.695,-16.113,0.000,0
1595392949.141,140.625,-20.996,-24.902,-4.883,0.000,0
1595392949.144,-81.543,-25.879,-23.438,-5.371,0.000,0
1595392949.148,-113.770,-25.391,-21.484,-4.883,0.000,0
1595392949.152,97.168,-23.438,-14.160,2.930,0.000,0
1595392949.156,167.969,-22.949,-14.648,-3.418,0.000,0
1595392949.160,-21.484,-26.367,-20.020,-1.465,0.000,0
1595392949.164,-129.883,-26.367,-28.320,-0.488,0.000,0
1595392949.168,33.691,-22.461,-21.973,-5.859,0.000,0
1595392949.172,168.457,-23.926,-25.879,-4.883,0.000,0
1595392949.176,33.203,-19.043,-17.578,-1.465,0.000,0
1595392949.180,-130.371,-21.973,-12.695,-3.906,0.000,0
1595392949.183,-30.273,-22.949,-17.578,0.977,0.000,0
1595392949.187,166.504,-18.066,-5.371,4.395,0.000,0
1595392949.191,97.168,-20.996,-5.371,-6.836,0.000,0
1595392949.195,-118.164,-24.414,-19.043,-6.836,0.000,0
1595392949.199,-94.727,-24.902,-33.691,-10.742,0.000,0
1595392949.203,120.117,-20.508,-22.461,-22.461,0.000,0
1595392949.207,135.742,-21.973,-17.578,-15.137,0.000,0
1595392949.211,-79.102,-25.391,-19.531,-6.348,0.000,0
1595392949.215,-137.207,-25.391,-35.156,-11.230,0.000,0
1595392949.219,60.547,-25.879,-32.715,-18.066,0.000,0
1595392949.223,149.902,-25.879,-16.113,-23.438,0.000,0
1595392949.226,-27.344,-26.367,-16.602,-10.254,0.000,0
1595392949.230,-145.508,-28.320,-24.902,-3.418,0.000,0
1595392949.234,6.348,-24.902,-17.090,-14.160,0.000,0
1595392949.238,166.992,-13.672,-3.906,-7.324,0.000,0
1595392949.242,46.387,-13.672,-11.230,-0.977,0.000,0
1595392949.246,-143.066,-21.973,-28.809,-4.883,0.000,0
1595392949.250,-54.688,-26.367,-23.438,-4.395,0.000,0
1595392949.254,144.531,-30.273,-10.254,-10.742,0.000,0
1595392949.258,89.844,-30.762,-13.184,-6.348,0.000,0
1595392949.262,-127.441,-33.203,-26.855,4.395,0.000,0
1595392949.266,-112.793,-36.621,-25.391,-5.371,0.000,0
1595392949.269,107.422,-32.227,-6.348,-19.531,0.000,0
1595392949.273,131.836,-29.297,-17.090,-21.484,0.000,0
1595392949.277,-78.613,-31.738,-26.367,-12.695,0.000,0
1595392949.281,-147.949,-32.715,-21.973,-10.742,0.000,0
1595392949.285,49.805,-32.227,-11.719,-10.254,0.000,0
1595392949.289,152.832,-32.227,-18.555,-15.137,0.000,0
1595392949.293,-17.578,-31.738,-20.996,-11.230,0.000,0
1595392949.297,-138.184,-28.809,-20.996,0.000,0.000,0
1595392949.301,7.324,-30.762,-12.695,-2.930,0.000,0
1595392949.305,166.992,-27.832,-7.812,3.418,0.000,0
1595392949.308,52.246,-27.832,-16.113,3.906,0.000,0
1595392949.312,-136.719,-30.762,-10.742,2.441,0.000,0
1595392949.316,-63.477,-30.273,-12.207,0.000,0.000,0
1595392949.320,133.301,-28.320,-9.277,-16.113,0.000,0
1595392949.324,105.469,-25.391,-9.766,-4.883,0.000,0
1595392949.328,-109.375,-27.344,-15.625,-0.977,0.000,0
1595392949.332,-112.305,-27.832,-17.090,-0.977,0.000,0
1595392949.336,103.516,-30.273,-7.812,-8.789,0.000,0
1595392949.340,142.090,-33.203,-11.230,-16.602,0.000,0
1595392949.344,-58.105,-25.879,-14.160,-6.836,0.000,0
1595392949.348,-142.578,-23.438,-31.738,-17.578,0.000,0
1595392949.351,37.598,-26.855,-34.180,-16.113,0.000,0
1595392949.355,166.016,-22.461,-15.137,-5.371,0.000,0
1595392949.359,10.742,-22.949,-10.742,-9.766,0.000,0
1595392949.363,-143.066,-28.809,-33.691,-8.301,0.000,0
1595392949.367,-11.719,-26.855,-33.203,-7.812,0.000,0
1595392949.371,174.805,-25.391,-13.184,-11.230,0.000,0
1595392949.375,76.172,-28.320,-7.812,-9.766,0.000,0
1595392949.379,-112.793,-38.086,-17.090,-6.836,0.000,0
1595392949.383,-54.199,-41.016,-22.949,0.000,0.000,0
1595392949.387,142.090,-33.691,-9.277,-6.836,0.000,0
1595392949.391,125.000,-33.691,-7.812,-14.648,0.000,0
1595392949.394,-90.820,-36.133,-23.926,-4.395,0.000,0
1595392949.398,-115.234,-36.133,-30.762,1.465,0.000,0
1595392949.402,93.750,-31.738,-4.883,-6.348,0.000,0
1595392949.406,160.156,-26.367,-2.441,-3.418,0.000,0
1595392949.410,-45.898,-36.621,-26.367,-2.441,0.000,0
1595392949.414,-147.949,-42.969,-33.203,-10.742,0.000,0
1595392949.418,35.645,-37.598,-11.230,-15.137,0.000,0
1595392949.422,170.410,-30.273,-7.324,-7.324,0.000,0
1595392949.426,24.902,-31.250,-12.695,0.977,0.000,0
1595392949.430,-136.719,-36.621,-23.926,-1.465,0.000,0
1595392949.433,-14.160,-33.203,-20.020,-3.418,0.000,0
1595392949.437,178.711,-25.879,-10.254,-6.836,0.000,0
1595392949.441,91.797,-24.902,-25.879,1.465,0.000,0
1595392949.445,-120.605,-29.297,-32.715,1.953,0.000,0
1595392949.449,-77.148,-32.227,-19.043,-10.254,0.000,0
1595392949.453,136.719,-31.250,-6.836,-5.859,0.000,0
1595392949.457,138.672,-27.832,-14.648,-0.488,0.000,0
1595392949.461,-73.242,-25.879,-12.207,-0.977,0.000,0
1595392949.465,-120.605,-27.832,-23.438,-0.977,0.000,0
1595392949.469,81.055,-26.367,-20.508,0.488,0.000,0
1595392949.473,162.598,-26.855,-19.043,-1.465,0.000,0
1595392949.476,-22.949,-26.367,-20.508,-5.859,0.000,0
1595392949.480,-137.695,-27.832,-28.320,-10.254,0.000,0
1595392949.484,18.555,-31.250,-24.902,-10.254,0.000,0
1595392949.488,159.180,-31.250,-20.996,-6.836,0.000,0
1595392949.492,32.715,-32.715,-19.531,-0.488,0.000,0
1595392949.496,-143.066,-33.691,-20.508,-4.395,0.000,0
1595392949.500,-40.527,-37.109,-26.367,-6.348,0.000,0
1595392949.504,156.738,-36.133,-19.531,-2.930,0.000,0
1595392949.508,90.820,-30.273,-7.812,-4.395,0.000,0
1595392949.512,-115.723,-27.344,-10.254,5.859,0.000,0
1595392949.516,-97.656,-27.832,-19.531,3.906,0.000,0
1595392949.519,116.699,-28.809,-6.836,-5.859,0.000,0
1595392949.523,141.602,-26.855,-4.395,-4.883,0.000,0
1595392949.527,-73.242,-31.250,-13.184,-2.441,0.000,0
1595392949.531,-137.695,-38.086,-26.855,-11.230,0.000,0
1595392949.535,64.453,-28.320,-13.184,-12.207,0.000,0
1595392949.539,161.133,-24.902,-6.836,-11.230,0.000,0
1595392949.543,-20.996,-33.203,-19.531,-10.742,0.000,0
1595392949.547,-149.414,-36.133,-39.062,1.953,0.000,0
1595392949.551,0.488,-32.715,-23.926,-8.789,0.000,0
1595392949.555,156.250,-30.273,-6.836,-23.438,0.000,0
1595392949.558,41.992,-33.203,-18.066,-9.766,0.000,0
1595392949.562,-141.113,-36.621,-25.879,-1.953,0.000,0
1595392949.566,-64.941,-37.109,-18.066,-9.277,0.000,0
1595392949.570,141.602,-32.715,-8.301,-14.160,0.000,0
1595392949.574,107.422,-32.227,-13.672,-12.207,0.000,0
1595392949.578,-99.609,-30.762,-22.461,-10.254,0.000,0
1595392949.582,-105.957,-36.621,-30.762,-18.066,0.000,0
1595392949.586,106.445,-34.180,-23.438,-21.484,0.000,0
1595392949.590,152.344,-24.414,-25.879,-13.184,0.000,0
1595392949.594,-59.570,-29.785,-22.949,-11.230,0.000,0
1595392949.598,-138.184,-30.273,-26.855,-4.395,0.000,0
1595392949.601,55.176,-23.926,-13.672,-4.883,0.000,0
1595392949.605,168.457,-25.391,-17.090,-8.301,0.000,0
1595392949.609,-4.395,-29.297,-28.320,-7.812,0.000,0
1595392949.613,-152.832,-29.297,-33.691,-15.137,0.000,0
1595392949.617,-14.160,-30.273,-33.203,-20.020,0.000,0
1595392949.621,163.086,-30.273,-17.578,-10.742,0.000,0
1595392949.625,59.082,-27.832,-20.020,-4.395,0.000,0
1595392949.629,-134.766,-29.785,-31.738,-4.883,0.000,0
1595392949.633,-59.570,-32.227,-27.344,-5.859,0.000,0
1595392949.637,141.113,-27.832,-12.207,-7.324,0.000,0
1595392949.641,108.887,-27.344,-5.859,-3.906,0.000,0
1595392949.644,-102.051,-27.832,-5.859,1.953,0.000,0
1595392949.648,-116.699,-26.855,-23.926,-4.883,0.000,0
1595392949.652,94.727,-30.273,-20.020,-15.625,0.000,0
1595392949.656,144.531,-30.762,-12.695,-22.461,0.000,0
1595392949.660,-54.688,-29.785,-18.555,-21.484,0.000,0
1595392949.664,-141.602,-33.203,-33.691,-14.160,0.000,0
1595392949.668,39.551,-33.203,-24.414,-15.625,0.000,0
1595392949.672,167.969,-26.855,-16.113,-10.254,0.000,0
1595392949.676,18.066,-25.879,-21.973,-2.441,0.000,0
1595392949.680,-135.254,-36.133,-39.062,-1.465,0.000,0
1595392949.683,-16.602,-33.203,-31.738,-7.812,0.000,0
1595392949.687,160.156,-24.902,-2.930,-16.602,0.000,0
1595392949.691,75.684,-30.273,-7.812,-8.301,0.000,0
1595392949.695,-130.859,-33.203,-18.555,-9.766,0.000,0
1595392949.699,-85.938,-31.738,-13.672,-11.719,0.000,0
1595392949.703,127.441,-31.250,-1.953,-9.277,0.000,0
1595392949.707,122.559,-25.879,-6.348,-14.648,0.000,0
1595392949.711,-82.520,-25.879,-9.277,-3.418,0.000,0
1595392949.715,-117.676,-29.785,-15.625,-0.488,0.000,0
1595392949.719,88.867,-27.344,0.000,-7.812,0.000,0
1595392949.723,166.016,-23.926,0.488,-1.465,0.000,0
1595392949.726,-27.832,-26.855,-18.066,-1.953,0.000,0
1595392949.730,-143.066,-30.273,-22.461,-18.066,0.000,0
1595392949.734,23.926,-26.855,0.977,-26.855,0.000,0
1595392949.738,166.504,-24.414,3.906,-17.090,0.000,0
1595392949.742,21.973,-29.785,-7.812,-15.137,0.000,0
1595392949.746,-147.949,-37.109,-14.160,-11.230,0.000,0
1595392949.750,-37.109,-33.691,-12.695,-5.371,0.000,0
1595392949.754,150.391,-29.785,-14.160,-10.742,0.000,0
1595392949.758,75.195,-30.762,-19.531,-7.812,0.000,0
1595392949.762,-130.371,-28.809,-17.090,-2.930,0.000,0
1595392949.766,-91.309,-25.391,-16.113,-3.418,0.000,0
1595392949.769,120.605,-25.391,-16.113,-5.371,0.000,0
1595392949.773,126.465,-23.926,-16.113,-2.930,0.000,0
1595392949.777,-81.543,-19.531,-5.859,-3.418,0.000,0
1595392949.781,-135.742,-23.926,-20.996,-1.953,0.000,0
1595392949.785,64.453,-25.879,-23.438,-0.977,0.000,0
1595392949.789,148.438,-24.902,-23.438,-3.906,0.000,0
1595392949.793,-34.668,-28.320,-21.484,-7.812,0.000,0
1595392949.797,-148.438,-26.855,-20.020,-1.953,0.000,0
1595392949.801,12.207,-26.367,-19.043,-8.789,0.000,0
1595392949.805,165.039,-25.879,-14.160,-15.137,0.000,0
1595392949.808,38.574,-25.391,-12.207,-8.301,0.000,0
1595392949.812,-140.625,-29.785,-26.855,-9.766,0.000,0
1595392949.816,-50.781,-37.109,-39.062,-12.207,0.000,0
1595392949.820,147.461,-32.227,-24.414,-10.254,0.000,0
1595392949.824,90.332,-29.297,-18.066,-8.789,0.000,0
1595392949.828,-127.441,-35.156,-25.879,-9.277,0.000,0
1595392949.832,-112.305,-34.180,-34.668,-4.395,0.000,0
1595392949.836,110.840,-27.832,-4.883,-10.254,0.000,0
1595392949.840,137.207,-23.926,6.836,-7.812,0.000,0
1595392949.844,-77.637,-30.762,-11.719,0.488,0.000,0
1595392949.848,-142.090,-30.273,-15.625,-6.348,0.000,0
1595392949.851,54.688,-23.438,0.977,-9.766,0.000,0
1595392949.855,165.527,-24.414,6.348,-2.930,0.000,0
1595392949.859,-2.930,-28.320,-6.348,-1.953,0.000,0
1595392949.863,-145.508,-36.133,-27.832,-4.395,0.000,0
1595392949.867,-9.277,-41.992,-20.508,-10.742,0.000,0
1595392949.871,157.715,-38.086,-1.953,-18.555,0.000,0
1595392949.875,51.758,-33.203,-6.348,-7.812,0.000,0
1595392949.879,-143.066,-44.922,-21.973,-5.371,0.000,0
1595392949.883,-68.848,-43.457,-11.719,-3.418,0.000,0
1595392949.887,149.902,-29.785,5.371,10.742,0.000,0
1595392949.891,110.352,-33.691,-6.348,2.441,0.000,0
1595392949.894,-113.281,-38.086,-15.625,-7.812,0.000,0
1595392949.898,-108.887,-30.762,-16.113,-1.953,0.000,0
1595392949.902,113.770,-25.391,-0.977,6.836,0.000,0
1595392949.906,156.738,-32.715,-5.859,0.000,0.000,0
1595392949.910,-49.316,-33.691,-14.160,5.859,0.000,0
1595392949.914,-130.859,-28.809,-19.531,10.254,0.000,0
1595392949.918,49.805,-30.762,-12.695,-1.953,0.000,0
1595392949.922,166.504,-31.250,-7.324,-6.348,0.000,0
1595392949.926,9.277,-31.250,-3.906,-5.859,0.000,0
1595392949.930,-145.996,-36.621,-20.020,-10.254,0.000,0
1595392949.933,-22.461,-39.551,-25.391,-8.789,0.000,0
1595392949.937,154.785,-41.016,-26.855,5.859,0.000,0
1595392949.941,59.570,-38.086,-20.020,-3.418,0.000,0
1595392949.945,-135.742,-34.180,-17.578,-14.648,0.000,0
1595392949.949,-69.336,-33.691,-25.391,-2.930,0.000,0
1595392949.953,141.602,-31.738,-19.043,-8.789,0.000,0
1595392949.957,117.676,-31.738,-15.625,-17.090,0.000,0
1595392949.961,-102.539,-32.227,-17.090,-4.883,0.000,0
1595392949.965,-130.371,-37.598,-33.203,-5.371,0.000,0
1595392949.969,86.426,-39.551,-13.672,-12.207,0.000,0
1595392949.973,151.367,-31.250,5.859,-15.625,0.000,0
1595392949.976,-49.805,-26.855,-7.324,-7.812,0.000,0
1595392949.980,-150.879,-31.250,-17.090,-1.465,0.000,0
1595392949.984,25.391,-32.227,-0.977,-15.625,0.000,0
1595392949.988,163.574,-24.414,6.348,-17.578,0.000,0
1595392949.992,17.090,-25.391,-5.859,-5.371,0.000,0
1595392949.996,-144.531,-32.227,-22.949,-12.207,0.000,0
1595392950.000,-26.367,-31.250,-11.230,-12.695,0.000,0
1595392950.004,164.062,-29.297,0.488,-1.953,0.000,0
1595392950.008,83.984,-27.832,-4.395,-1.465,0.000,0
1595392950.012,-123.047,-30.762,-18.555,8.301,0.000,0
1595392950.016,-82.520,-34.668,-18.066,3.906,0.000,0
1595392950.019,132.812,-26.367,10.254,-11.230,0.000,0
1595392950.023,134.277,-19.043,6.836,-1.465,0.000,0
1595392950.027,-85.449,-28.320,-4.883,3.906,0.000,0
1595392950.031,-124.023,-30.273,-7.812,2.441,0.000,0
1595392950.035,90.332,-22.949,4.883,-2.930,0.000,0
1595392950.039,169.922,-24.414,-6.836,-11.230,0.000,0
1595392950.043,-19.531,-25.391,-12.695,-1.953,0.000,0
1595392950.047,-136.719,-25.391,-8.301,-0.977,0.000,0
1595392950.051,22.949,-30.762,-3.906,-12.207,0.000,0
1595392950.055,167.480,-37.598,-8.301,-2.930,0.000,0
1595392950.058,35.645,-37.598,-12.695,6.836,0.000,0
1595392950.062,-138.184,-38.086,-10.254,-9.277,0.000,0
1595392950.066,-39.062,-37.109,-14.648,-11.719,0.000,0
1595392950.070,161.621,-31.250,-15.137,-1.953,0.000,0
1595392950.074,97.168,-31.738,-21.484,5.371,0.000,0
1595392950.078,-114.258,-32.227,-23.438,-3.906,0.000,0
1595392950.082,-88.867,-34.180,-31.738,-20.996,0.000,0
1595392950.086,123.535,-30.273,-28.809,-16.602,0.000,0
1595392950.090,132.324,-21.484,-24.414,-11.230,0.000,0
1595392950.094,-77.148,-30.273,-30.762,-9.277,0.000,0
1595392950.098,-135.254,-38.574,-41.504,-8.789,0.000,0
1595392950.101,58.105,-34.180,-34.668,-14.648,0.000,0
1595392950.105,161.621,-32.715,-23.438,-17.090,0.000,0
1595392950.109,-9.277,-33.203,-17.090,-7.324,0.000,0
1595392950.113,-133.301,-32.715,-25.879,7.812,0.000,0
1595392950.117,12.695,-32.715,-13.672,0.000,0.000,0
1595392950.121,160.156,-27.832,1.953,-14.160,0.000,0
1595392950.125,38.574,-28.320,-5.859,-8.789,0.000,0
1595392950.129,-146.484,-36.621,-24.902,-4.395,0.000,0
1595392950.133,-61.035,-40.527,-29.297,-14.160,0.000,0
1595392950.137,150.391,-36.133,-9.766,-18.066,0.000,0
1595392950.141,89.844,-31.250,-14.160,-10.254,0.000,0
1595392950.144,-129.395,-32.715,-39.062,-9.766,0.000,0
1595392950.148,-107.422,-33.203,-40.039,-18.555,0.000,0
1595392950.152,110.840,-27.344,-7.812,-25.879,0.000,0
1595392950.156,144.531,-25.391,-0.488,-17.578,0.000,0
1595392950.160,-69.824,-34.180,-22.461,2.930,0.000,0
1595392950.164,-145.996,-39.062,-33.691,7.324,0.000,0
1595392950.168,47.363,-31.738,0.000,-5.371,0.000,0
1595392950.172,159.668,-29.785,0.977,-4.395,0.000,0
1595392950.176,-1.953,-30.273,-15.137,-4.395,0.000,0
1595392950.180,-145.020,-25.879,-21.484,-12.207,0.000,0
1595392950.183,-14.648,-22.461,-16.113,-15.625,0.000,0
1595392950.187,153.809,-23.926,-11.719,-12.207,0.000,0
1595392950.191,52.734,-30.273,-15.137,-1.465,0.000,0
1595392950.195,-137.695,-27.344,-15.137,0.977,0.000,0
1595392950.199,-66.406,-24.902,-6.348,-2.441,0.000,0
1595392950.203,140.137,-28.320,2.930,0.000,0.000,0
1595392950.207,98.633,-32.715,-11.230,-2.930,0.000,0
1595392950.211,-115.234,-30.273,-15.625,-10.254,0.000,0
1595392950.215,-122.070,-27.344,-19.043,-10.254,0.000,0
1595392950.219,85.449,-28.809,-12.695,-13.672,0.000,0
1595392950.223,139.648,-29.297,-15.625,-11.230,0.000,0
1595392950.226,-59.082,-28.809,-17.090,-0.488,0.000,0
1595392950.230,-150.391,-29.297,-20.996,1.465,0.000,0
1595392950.234,30.273,-27.832,-17.090,-7.812,0.000,0
1595392950.238,152.344,-25.879,-18.066,-3.906,0.000,0
1595392950.242,0.000,-25.391,-17.090,9.277,0.000,0
1595392950.246,-152.344,-29.785,-19.531,8.301,0.000,0
1595392950.250,-30.273,-27.832,-22.461,5.371,0.000,0
1595392950.254,147.461,-24.414,-15.137,3.906,0.000,0
1595392950.258,53.711,-26.367,-15.625,-0.488,0.000,0
1595392950.262,-143.555,-28.320,-19.043,-3.906,0.000,0
1595392950.266,-90.820,-33.691,-32.227,-1.465,0.000,0
1595392950.269,118.164,-29.785,-23.438,1.465,0.000,0
1595392950.273,107.910,-24.902,-10.254,-8.789,0.000,0
1595392950.277,-104.980,-32.227,-26.855,-7.324,0.000,0
1595392950.281,-126.465,-30.273,-40.039,3.418,0.000,0
1595392950.285,80.078,-24.902,-27.832,-4.883,0.000,0
1595392950.289,142.578,-25.391,-28.320,-11.230,0.000,0
1595392950.293,-44.922,-27.344,-27.344,4.395,0.000,0
1595392950.297,-146.484,-30.273,-38.574,16.113,0.000,0
1595392950.301,22.949,-27.344,-28.809,-2.930,0.000,0
1595392950.305,158.203,-27.344,-14.160,-14.160,0.000,0
1595392950.308,17.578,-30.273,-22.949,-6.348,0.000,0
1595392950.312,-142.578,-29.785,-31.738,-4.395,0.000,0
1595392950.316,-36.133,-26.367,-13.672,-11.230,0.000,0
1595392950.320,149.902,-25.879,-1.465,-8.789,0.000,0
1595392950.324,74.219,-29.785,-14.648,-4.395,0.000,0
1595392950.328,-135.254,-30.273,-27.344,-9.277,0.000,0
1595392950.332,-101.074,-27.832,-26.367,-10.254,0.000,0
1595392950.336,113.281,-23.926,-8.789,-13.184,0.000,0
1595392950.340,116.699,-26.367,-19.043,-11.719,0.000,0
1595392950.344,-92.285,-29.785,-31.250,-12.207,0.000,0
1595392950.348,-134.766,-32.227,-24.902,-18.555,0.000,0
1595392950.351,64.941,-29.297,-10.254,-19.043,0.000,0
1595392950.355,153.320,-27.832,-15.137,-13.672,0.000,0
1595392950.359,-27.832,-27.832,-32.715,-13.184,0.000,0
1595392950.363,-146.973,-24.902,-34.180,-10.254,0.000,0
1595392950.367,8.789,-23.438,-19.531,-11.719,0.000,0
1595392950.371,166.016,-18.066,-6.348,-5.371,0.000,0
1595392950.375,42.480,-17.090,-4.883,4.883,0.000,0
1595392950.379,-134.277,-20.508,-21.973,1.465,0.000,0
1595392950.383,-39.551,-20.020,-25.879,-15.625,0.000,0
1595392950.387,157.227,-14.648,-17.090,-7.812,0.000,0
1595392950.391,101.074,-14.160,-5.371,17.578,0.000,0
1595392950.394,-105.957,-16.602,-5.859,16.113,0.000,0
1595392950.398,-83.984,-20.020,-17.578,5.859,0.000,0
1595392950.402,126.953,-20.508,-5.371,2.441,0.000,0
1595392950.406,145.508,-15.625,-7.324,0.977,0.000,0
1595392950.410,-59.570,-14.648,-13.184,5.859,0.000,0
1595392950.414,-125.977,-17.578,-26.367,-2.441,0.000,0
1595392950.418,62.988,-19.043,-20.020,-15.137,0.000,0
1595392950.422,169.434,-17.090,-11.230,-6.348,0.000,0
1595392950.426,-7.812,-21.484,-19.531,-9.766,0.000,0
1595392950.430,-148.926,-26.855,-35.156,-10.254,0.000,0
1595392950.433,-1.465,-21.973,-26.367,-4.395,0.000,0
1595392950.437,156.250,-19.043,-0.977,-6.348,0.000,0
1595392950.441,44.922,-20.508,-10.254,0.488,0.000,0
1595392950.445,-136.230,-16.602,-23.438,-1.465,0.000,0
1595392950.449,-55.664,-18.066,-13.184,-10.742,0.000,0
1595392950.453,152.832,-17.090,-1.953,-12.207,0.000,0
1595392950.457,108.887,-19.531,-13.184,-9.766,0.000,0
1595392950.461,-107.910,-26.855,-25.879,-6.836,0.000,0
1595392950.465,-100.586,-23.438,-21.973,-7.812,0.000,0
1595392950.469,108.887,-20.508,-4.883,-18.555,0.000,0
1595392950.473,139.160,-24.902,-13.672,-17.578,0.000,0
1595392950.476,-64.453,-31.738,-21.484,-3.418,0.000,0
1595392950.480,-137.207,-27.832,-14.648,-3.418,0.000,0
1595392950.484,51.270,-20.020,4.395,-4.395,0.000,0
1595392950.488,162.109,-24.902,-0.488,-0.977,0.000,0
1595392950.492,4.883,-25.879,-20.020,0.000,0.000,0
1595392950.496,-132.324,-18.066,-17.090,-6.836,0.000,0
1595392950.500,-5.371,-15.625,-2.441,-15.137,0.000,0
1595392950.504,159.180,-16.113,-8.301,-16.113,0.000,0
1595392950.508,59.570,-14.648,-16.602,-14.648,0.000,0
1595392950.512,-129.883,-15.137,-17.090,-10.742,0.000,0
1595392950.516,-68.359,-17.090,-19.043,-17.090,0.000,0
1595392950.519,139.648,-18.555,-20.020,-20.508,0.000,0
1595392950.523,118.652,-16.113,-18.555,-12.207,0.000,0
1595392950.527,-98.633,-18.555,-14.160,-1.953,0.000,0
1595392950.531,-115.723,-24.414,-27.832,3.906,0.000,0
1595392950.535,94.238,-24.414,-23.438,-8.789,0.000,0
1595392950.539,147.461,-19.043,-17.090,-13.672,0.000,0
1595392950.543,-50.293,-19.531,-15.137,-6.348,0.000,0
1595392950.547,-145.020,-27.832,-22.461,-11.230,0.000,0
1595392950.551,23.438,-31.738,-31.738,-15.625,0.000,0
1595392950.555,145.508,-28.809,-22.461,-12.695,0.000,0
1595392950.558,6.348,-27.344,-0.488,-12.207,0.000,0
1595392950.562,-148.438,-34.180,-13.184,-16.113,0.000,0
1595392950.566,-36.621,-37.109,-24.414,-13.672,0.000,0
1595392950.570,150.391,-28.320,-9.766,-5.371,0.000,0
1595392950.574,72.754,-22.461,-0.977,-6.348,0.000,0
1595392950.578,-138.184,-34.668,-18.066,-5.859,0.000,0
1595392950.582,-105.469,-41.016,-28.809,-10.254,0.000,0
1595392950.586,109.863,-33.691,-2.930,-18.066,0.000,0
1595392950.590,111.328,-32.227,-0.488,-14.648,0.000,0
1595392950.594,-104.492,-38.086,-12.207,-4.395,0.000,0
1595392950.598,-132.812,-40.039,-12.695,1.953,0.000,0
1595392950.601,81.055,-34.668,7.812,3.906,0.000,0
1595392950.605,155.273,-32.715,7.324,5.371,0.000,0
1595392950.609,-32.227,-34.668,-9.277,9.766,0.000,0
1595392950.613,-148.438,-34.180,-25.391,6.348,0.000,0
1595392950.617,14.160,-29.785,-10.742,0.000,0.000,0
1595392950.621,158.691,-29.297,4.395,-5.859,0.000,0
1595392950.625,18.066,-34.180,-20.020,-5.371,0.000,0
1595392950.629,-153.320,-39.062,-42.480,-6.348,0.000,0
1595392950.633,-49.805,-33.691,-20.020,-14.160,0.000,0
1595392950.637,136.230,-30.273,-5.859,-13.672,0.000,0
1595392950.641,71.289,-30.762,-14.160,-3.418,0.000,0
1595392950.644,-129.395,-33.203,-19.531,0.488,0.000,0
1595392950.648,-94.727,-30.762,-15.625,-5.371,0.000,0
1595392950.652,120.117,-29.785,-4.395,-8.789,0.000,0
1595392950.656,125.488,-35.645,-19.531,-7.812,0.000,0
1595392950.660,-86.426,-36.621,-35.156,-6.348,0.000,0
1595392950.664,-141.113,-39.062,-37.109,-8.789,0.000,0
1595392950.668,62.500,-32.715,-19.531,-8.301,0.000,0
1595392950.672,150.879,-27.344,-24.902,1.465,0.000,0
1595392950.676,-33.691,-30.273,-22.461,1.953,0.000,0
1595392950.680,-149.414,-24.414,-15.137,-2.441,0.000,0
1595392950.683,2.441,-27.344,-12.207,-7.812,0.000,0
1595392950.687,155.273,-31.738,-7.324,-11.230,0.000,0
1595392950.691,38.574,-27.832,-3.906,-3.418,0.000,0
1595392950.695,-141.602,-29.297,-10.254,-1.953,0.000,0
1595392950.699,-47.852,-28.320,-18.066,-1.953,0.000,0
1595392950.703,150.879,-22.949,-10.254,-4.395,0.000,0
1595392950.707,91.797,-24.902,-7.324,-10.254,0.000,0
1595392950.711,-123.047,-29.297,-13.184,0.000,0.000,0
1595392950.715,-108.887,-26.855,-16.113,2.930,0.000,0
1595392950.719,110.840,-23.926,2.930,-5.371,0.000,0
1595392950.723,147.949,-23.438,3.906,2.441,0.000,0
1595392950.726,-55.664,-22.461,-8.301,2.930,0.000,0
1595392950.730,-125.977,-19.531,-22.461,6.836,0.000,0
1595392950.734,69.336,-16.113,-5.859,9.277,0.000,0
1595392950.738,169.922,-15.625,11.719,-2.930,0.000,0
1595392950.742,-2.441,-15.137,-7.812,-7.324,0.000,0
1595392950.746,-143.066,-16.602,-22.949,-5.371,0.000,0
1595392950.750,-9.766,-26.367,-12.695,-9.766,0.000,0
1595392950.754,161.133,-26.855,-8.301,-8.301,0.000,0
1595392950.758,60.059,-25.879,-13.184,-0.488,0.000,0
1595392950.762,-126.465,-28.320,-23.438,-3.418,0.000,0
1595392950.766,-53.711,-23.438,-14.648,-9.277,0.000,0
1595392950.769,151.855,-15.137,6.348,-12.207,0.000,0
1595392950.773,122.070,-12.695,-1.953,-8.301,0.000,0
1595392950.777,-98.145,-18.066,-18.555,1.465,0.000,0
1595392950.781,-110.352,-17.090,-11.230,-1.953,0.000,0
1595392950.785,101.562,-15.137,8.301,-5.371,0.000,0
1595392950.789,153.809,-17.090,3.906,5.859,0.000,0
1595392950.793,-42.969,-19.531,-1.953,8.301,0.000,0
1595392950.797,-130.859,-24.902,-10.742,8.301,0.000,0
1595392950.801,52.734,-24.414,-3.418,9.766,0.000,0
1595392950.805,168.457,-18.066,-7.324,10.254,0.000,0
1595392950.808,12.207,-23.926,-17.578,10.254,0.000,0
1595392950.812,-141.602,-24.902,-14.648,4.883,0.000,0
1595392950.816,-17.578,-18.555,-10.254,-2.930,0.000,0
1595392950.820,156.738,-19.531,-13.672,-6.348,0.000,0
1595392950.824,64.941,-21.973,-15.137,0.000,0.000,0
1595392950.828,-119.141,-18.555,-9.277,2.441,0.000,0
1595392950.832,-61.035,-15.137,-12.207,1.953,0.000,0
1595392950.836,145.996,-15.625,-5.371,0.000,0.000,0
1595392950.840,126.953,-16.113,2.441,4.395,0.000,0
1595392950.844,-93.750,-18.555,-1.465,5.371,0.000,0
1595392950.848,-114.746,-16.602,-12.695,5.859,0.000,0
1595392950.851,102.051,-16.113,-13.184,5.371,0.000,0
1595392950.855,167.480,-14.160,-6.836,3.418,0.000,0
1595392950.859,-31.738,-12.695,3.418,7.812,0.000,0
1595392950.863,-134.766,-18.066,-9.766,8.301,0.000,0
1595392950.867,39.062,-17.578,-4.883,0.488,0.000,0
1595392950.871,165.039,-11.719,3.906,-3.418,0.000,0
1595392950.875,21.484,-11.230,-7.812,4.395,0.000,0
1595392950.879,-129.395,-16.602,-21.484,12.695,0.000,0
1595392950.883,-22.461,-17.090,-9.766,8.301,0.000,0
1595392950.887,164.062,-12.695,9.277,0.000,0.000,0
1595392950.891,85.938,-17.090,2.930,0.488,0.000,0
1595392950.894,-122.070,-23.926,-17.578,5.371,0.000,0
1595392950.898,-81.543,-27.344,-17.578,0.000,0.000,0
1595392950.902,127.441,-25.391,12.207,-6.836,0.000,0
1595392950.906,125.977,-24.902,11.719,4.395,0.000,0
1595392950.910,-80.078,-28.809,-1.465,6.348,0.000,0
1595392950.914,-113.770,-27.832,-1.465,-1.465,0.000,0
1595392950.918,93.262,-26.367,15.625,-6.348,0.000,0
1595392950.922,172.852,-26.855,8.789,-3.906,0.000,0
1595392950.926,-15.137,-27.832,-5.859,-0.977,0.000,0
1595392950.930,-141.113,-30.762,-11.719,-5.859,0.000,0
1595392950.933,7.324,-29.297,-4.883,-1.953,0.000,0
1595392950.937,155.273,-31.738,1.465,0.000,0.000,0
1595392950.941,26.855,-33.203,-6.836,-1.465,0.000,0
1595392950.945,-147.461,-33.203,-12.207,6.836,0.000,0
1595392950.949,-41.016,-32.715,-3.906,7.812,0.000,0
1595392950.953,155.762,-28.320,-1.953,10.254,0.000,0
1595392950.957,87.891,-28.809,-5.859,8.301,0.000,0
1595392950.961,-115.723,-25.391,-4.395,-1.953,0.000,0
1595392950.965,-83.984,-23.926,-2.930,-1.953,0.000,0
1595392950.969,130.371,-27.832,2.930,5.859,0.000,0
1595392950.973,143.066,-29.785,-0.977,9.766,0.000,0
1595392950.976,-72.754,-29.785,-8.301,-3.906,0.000,0
1595392950.980,-130.859,-27.832,-20.996,-5.859,0.000,0
1595392950.984,65.430,-24.414,-8.789,1.465,0.000,0
1595392950.988,161.133,-24.414,-4.883,5.371,0.000,0
1595392950.992,-19.043,-27.832,-15.137,3.418,0.000,0
1595392950.996,-156.250,-28.809,-19.043,-4.395,0.000,0
1595392951.000,-6.348,-33.691,-20.508,-2.930,0.000,0
1595392951.004,154.785,-34.180,-24.414,5.859,0.000,0
1595392951.008,38.086,-25.879,-11.230,3.418,0.000,0
1595392951.012,-140.625,-26.367,-12.207,0.000,0.000,0
1595392951.016,-55.176,-22.949,-16.602,2.441,0.000,0
1595392951.019,145.508,-20.996,-3.906,4.883,0.000,0
1595392951.023,98.633,-29.297,-7.812,-4.883,0.000,0
1595392951.027,-114.746,-34.668,-27.832,-3.418,0.000,0
1595392951.031,-113.770,-33.691,-34.180,0.488,0.000,0
1595392951.035,95.215,-30.762,-16.113,-6.348,0.000,0
1595392951.039,134.277,-28.809,-10.254,0.977,0.000,0
1595392951.043,-67.383,-32.227,-16.602,0.000,0.000,0
1595392951.047,-142.578,-40.039,-37.598,-0.977,0.000,0
1595392951.051,42.480,-37.598,-23.438,-2.930,0.000,0
1595392951.055,157.227,-28.320,-6.348,-2.930,0.000,0
1595392951.058,-5.859,-31.250,-25.391,-5.371,0.000,0
1595392951.062,-155.273,-35.645,-40.527,-7.812,0.000,0
1595392951.066,-17.578,-31.738,-26.367,-11.719,0.000,0
1595392951.070,157.227,-28.809,-17.578,-13.184,0.000,0
1595392951.074,55.664,-35.156,-29.297,-5.371,0.000,0
1595392951.078,-129.883,-35.645,-34.180,-2.930,0.000,0
1595392951.082,-60.059,-30.273,-29.785,-3.906,0.000,0
1595392951.086,142.090,-31.250,-19.043,-0.977,0.000,0
1595392951.090,109.375,-32.715,-20.996,10.254,0.000,0
1595392951.094,-102.539,-33.691,-24.414,9.766,0.000,0
1595392951.098,-115.234,-34.668,-27.832,2.930,0.000,0
1595392951.101,99.121,-32.715,-13.184,1.465,0.000,0
1595392951.105,152.344,-32.715,-26.855,2.930,0.000,0
1595392951.109,-51.270,-37.598,-38.086,-1.953,0.000,0
1595392951.113,-140.137,-43.457,-27.832,-9.766,0.000,0
1595392951.117,43.457,-34.180,-20.996,0.000,0.000,0
1595392951.121,164.551,-29.297,-22.461,-4.395,0.000,2
1595392951.125,11.719,-34.180,-22.461,-7.324,0.000,0
1595392951.129,-144.531,-32.715,-26.855,-4.395,0.000,0
1595392951.133,-32.227,-32.227,-23.926,-13.184,0.000,0
1595392951.137,151.855,-31.738,-21.973,-8.789,0.000,0
1595392951.141,70.312,-28.320,-18.555,3.418,0.000,0
1595392951.144,-132.812,-28.320,-12.695,3.906,0.000,0
1595392951.148,-80.566,-26.367,-19.531,1.465,0.000,0
1595392951.152,136.719,-20.508,-9.766,3.418,0.000,0
1595392951.156,119.629,-26.367,-10.742,1.953,0.000,0
1595392951.160,-88.379,-29.297,-16.113,2.441,0.000,0
1595392951.164,-117.676,-21.484,-26.855,6.348,0.000,0
1595392951.168,82.031,-22.461,-12.207,2.930,0.000,0
1595392951.172,155.273,-27.344,-5.371,4.883,0.000,0
1595392951.176,-38.086,-27.832,-18.555,13.672,0.000,0
1595392951.180,-145.996,-30.762,-30.273,17.090,0.000,0
1595392951.183,22.949,-31.250,-18.555,9.277,0.000,0
1595392951.187,167.969,-21.973,4.395,-1.465,0.000,0
1595392951.191,35.156,-22.949,-1.953,0.000,0.000,0
1595392951.195,-128.906,-28.320,-16.602,8.301,0.000,0
1595392951.199,-21.484,-30.273,4.395,7.324,0.000,0
1595392951.203,167.480,-25.879,19.531,4.395,0.000,0
1595392951.207,95.215,-21.484,8.789,13.184,0.000,0
1595392951.211,-114.258,-26.855,-1.465,17.578,0.000,0
1595392951.215,-84.961,-28.809,-3.418,10.254,0.000,0
1595392951.219,124.512,-26.367,9.766,4.395,0.000,0
1595392951.223,127.930,-21.484,-0.977,1.465,0.000,0
1595392951.226,-84.473,-21.973,-13.184,4.395,0.000,0
1595392951.230,-128.418,-29.297,-18.066,-2.441,0.000,0
1595392951.234,69.824,-26.367,-5.371,-10.254,0.000,0
1595392951.238,153.320,-24.414,-4.395,-12.207,0.000,0
1595392951.242,-29.297,-32.715,-17.090,-17.578,0.000,0
1595392951.246,-154.785,-37.598,-21.484,-25.879,0.000,0
1595392951.250,-1.465,-35.156,-10.742,-23.438,0.000,0
1595392951.254,148.926,-37.109,-11.719,-21.484,0.000,0
1595392951.258,25.879,-41.016,-21.973,-21.484,0.000,0
1595392951.262,-152.832,-35.645,-26.855,-10.742,0.000,0
1595392951.266,-59.082,-29.297,-21.973,-12.695,0.000,0
1595392951.269,134.766,-33.691,-22.949,-29.785,0.000,0
1595392951.273,74.707,-35.645,-25.879,-31.250,0.000,0
1595392951.277,-133.301,-34.668,-26.855,-22.949,0.000,0
1595392951.281,-121.094,-33.691,-28.809,-22.461,0.000,0
1595392951.285,91.797,-37.109,-20.508,-18.066,0.000,0
1595392951.289,114.258,-43.945,-21.484,-19.043,0.000,0
1595392951.293,-92.285,-37.109,-14.648,-26.855,0.000,0
1595392951.297,-161.621,-32.227,-26.855,-27.832,0.000,0
1595392951.301,30.273,-30.762,-23.438,-33.691,0.000,0
1595392951.305,137.207,-30.273,-18.555,-35.156,0.000,0
1595392951.308,-30.762,-33.203,-25.391,-25.879,0.000,0
1595392951.312,-164.551,-29.785,-37.598,-21.484,0.000,0
1595392951.316,-26.855,-30.273,-33.203,-29.785,0.000,0
1595392951.320,133.301,-29.297,-20.020,-32.715,0.000,0
1595392951.324,27.344,-28.809,-20.996,-24.414,0.000,0
1595392951.328,-154.785,-30.762,-35.645,-23.926,0.000,0
1595392951.332,-79.102,-33.203,-39.062,-32.715,0.000,0
1595392951.336,120.605,-32.715,-20.508,-34.180,0.000,0
1595392951.340,80.566,-26.855,-16.113,-32.715,0.000,0
1595392951.344,-127.441,-22.949,-31.250,-30.273,0.000,0
1595392951.348,-123.047,-23.438,-39.062,-24.414,0.000,0
1595392951.351,96.191,-20.508,-15.137,-18.555,0.000,0
1595392951.355,142.090,-20.020,-11.230,-16.602,0.000,0
1595392951.359,-62.500,-27.344,-27.832,-11.719,0.000,0
1595392951.363,-146.973,-26.367,-40.039,-5.859,0.000,0
1595392951.367,41.992,-18.555,-26.855,-11.719,0.000,0
1595392951.371,153.809,-18.555,-16.602,-18.555,0.000,0
1595392951.375,-7.324,-24.414,-28.320,-12.207,0.000,0
1595392951.379,-155.762,-28.809,-43.457,-12.695,0.000,0
1595392951.383,-25.391,-25.391,-14.160,-15.625,0.000,0
1595392951.387,151.367,-20.508,-0.488,-9.277,0.000,0
1595392951.391,51.758,-20.996,-16.602,-12.695,0.000,0
1595392951.394,-135.742,-24.414,-21.973,-12.695,0.000,0
1595392951.398,-69.336,-23.926,-11.719,-10.254,0.000,0
1595392951.402,142.578,-23.926,-2.441,-6.836,0.000,0
1595392951.406,104.492,-25.391,-11.230,-10.254,0.000,0
1595392951.410,-119.629,-27.832,-20.508,-17.090,0.000,0
1595392951.414,-114.258,-26.367,-14.648,-8.789,0.000,0
1595392951.418,96.680,-24.414,4.395,-8.789,0.000,0
1595392951.422,150.391,-23.926,2.930,-2.441,0.000,0
1595392951.426,-42.969,-24.414,1.465,2.930,0.000,0
1595392951.430,-141.602,-27.832,-14.648,-9.766,0.000,0
1595392951.433,22.949,-24.414,-11.719,-14.160,0.000,0
1595392951.437,151.367,-18.555,-9.766,-3.906,0.000,0
1595392951.441,9.277,-16.602,-8.789,2.930,0.000,0
1595392951.445,-145.508,-22.949,-11.230,0.000,0.000,0
1595392951.449,-23.926,-28.809,-11.230,-6.348,0.000,0
1595392951.453,157.715,-19.043,-5.859,-10.742,0.000,0
1595392951.457,69.824,-8.301,-13.184,-7.812,0.000,0
1595392951.461,-124.023,-11.719,-12.207,-6.836,0.000,0
1595392951.465,-78.613,-17.090,-16.113,-9.766,0.000,0
1595392951.469,122.559,-11.230,-19.043,-6.836,0.000,0
1595392951.473,119.629,-11.230,-12.207,-7.324,0.000,0
1595392951.476,-94.727,-22.461,-16.602,-4.395,0.000,0
1595392951.480,-126.465,-21.484,-24.414,1.465,0.000,0
1595392951.484,80.566,-20.996,-8.301,-7.324,0.000,0
1595392951.488,152.832,-25.879,-6.836,-12.695,0.000,0
1595392951.492,-32.227,-22.949,-17.090,-1.953,0.000,0
1595392951.496,-147.461,-23.926,-28.809,-7.324,0.000,0
1595392951.500,18.555,-24.414,-22.461,-13.184,0.000,0
1595392951.504,166.504,-21.484,-16.113,-9.277,0.000,0
1595392951.508,36.621,-19.531,-21.484,-2.930,0.000,0
1595392951.512,-124.023,-16.113,-34.180,2.930,0.000,0
1595392951.516,-19.043,-11.230,-21.973,-6.348,0.000,0
1595392951.519,174.805,-10.742,-0.977,-9.277,0.000,0
1595392951.523,102.539,-13.184,-20.020,-0.977,0.000,0
1595392951.527,-109.863,-13.184,-28.809,-5.371,0.000,0
1595392951.531,-83.984,-17.578,-22.949,-8.301,0.000,0
1595392951.535,136.230,-18.066,-7.324,-1.953,0.000,0
1595392951.539,149.414,-19.531,-10.254,13.672,0.000,0
1595392951.543,-65.918,-24.414,-12.207,15.625,0.000,0
1595392951.547,-115.723,-25.391,-13.184,7.324,0.000,0
1595392951.551,81.055,-23.438,-7.324,0.977,0.000,0
1595392951.555,168.457,-21.973,-15.137,0.488,0.000,0
1595392951.558,-13.672,-22.949,-20.996,5.859,0.000,0
1595392951.562,-139.160,-24.414,-15.625,-1.465,0.000,0
1595392951.566,14.160,-23.438,-13.184,-7.812,0.000,0
1595392951.570,171.875,-24.414,-15.137,-7.324,0.000,0
1595392951.574,52.246,-20.996,-9.766,-4.883,0.000,0
1595392951.578,-121.094,-21.484,-6.836,5.371,0.000,0
1595392951.582,-36.133,-26.367,-16.113,6.348,0.000,0
1595392951.586,153.320,-21.484,-15.137,2.930,0.000,0
1595392951.590,105.469,-17.090,-11.230,3.418,0.000,0
1595392951.594,-108.398,-21.973,-15.625,-3.906,0.000,0
1595392951.598,-98.145,-27.832,-24.902,-7.812,0.000,0
1595392951.601,119.629,-28.809,-20.996,1.465,0.000,0
1595392951.605,143.066,-28.809,-12.207,11.719,0.000,0
1595392951.609,-65.430,-31.250,-6.836,0.977,0.000,0
1595392951.613,-131.348,-35.156,-24.414,-8.789,0.000,0
1595392951.617,55.664,-35.156,-19.043,-4.395,0.000,0
1595392951.621,160.645,-33.203,-15.625,-1.953,0.000,0
1595392951.625,-0.977,-34.668,-20.020,1.465,0.000,0
1595392951.629,-134.277,-33.691,-24.902,6.836,0.000,0
1595392951.633,8.789,-29.785,-13.672,3.418,0.000,0
1595392951.637,172.363,-30.273,-1.953,0.977,0.000,0
1595392951.641,62.500,-33.691,-11.230,5.371,0.000,0
1595392951.644,-134.277,-34.668,-32.715,6.836,0.000,0
1595392951.648,-68.359,-34.668,-31.738,-3.418,0.000,0
1595392951.652,139.648,-25.391,-4.395,-6.348,0.000,0
1595392951.656,108.398,-16.113,-10.742,-1.465,0.000,0
1595392951.660,-105.469,-23.438,-31.738,4.395,0.000,0
1595392951.664,-118.164,-29.785,-35.645,1.953,0.000,0
1595392951.668,91.797,-31.250,-15.625,-7.324,0.000,0
1595392951.672,141.113,-34.180,-17.090,-15.625,0.000,0
1595392951.676,-61.523,-34.180,-37.109,-6.836,0.000,0
1595392951.680,-150.879,-35.156,-49.316,1.953,0.000,0
1595392951.683,33.203,-32.715,-18.066,-10.742,0.000,0
1595392951.687,153.809,-29.785,-12.207,-8.789,0.000,0
1595392951.691,-0.977,-36.133,-28.809,-4.395,0.000,0
1595392951.695,-154.297,-41.992,-35.156,-7.812,0.000,0
1595392951.699,-32.715,-36.621,-22.461,-16.113,0.000,0
1595392951.703,145.996,-33.203,-13.184,-20.508,0.000,0
1595392951.707,55.664,-32.227,-21.484,-9.766,0.000,0
1595392951.711,-144.531,-33.203,-30.273,-11.230,0.000,0
1595392951.715,-93.262,-32.715,-24.414,-19.043,0.000,0
1595392951.719,120.117,-30.762,-13.184,-13.184,0.000,0
1595392951.723,108.398,-34.668,-19.043,-18.555,0.000,0
1595392951.726,-107.422,-40.527,-19.531,-19.043,0.000,0
1595392951.730,-132.324,-38.086,-18.555,-15.137,0.000,0
1595392951.734,78.613,-36.621,-20.020,-20.508,0.000,0
1595392951.738,143.066,-38.574,-36.621,-22.461,0.000,0
1595392951.742,-53.223,-38.086,-28.320,-22.461,0.000,0
1595392951.746,-160.156,-41.016,-26.367,-25.391,0.000,0
1595392951.750,7.812,-42.480,-25.391,-25.879,0.000,0
1595392951.754,145.508,-43.457,-25.879,-21.484,0.000,0
1595392951.758,5.859,-41.504,-17.090,-17.090,0.000,0
1595392951.762,-157.227,-42.969,-20.508,-16.113,0.000,0
1595392951.766,-45.898,-44.434,-24.414,-10.742,0.000,0
1595392951.769,148.438,-41.016,-12.207,-11.230,0.000,0
1595392951.773,75.684,-39.062,-17.090,-19.043,0.000,0
1595392951.777,-131.836,-35.156,-30.762,-16.113,0.000,0
1595392951.781,-97.656,-33.691,-32.227,-17.578,0.000,0
1595392951.785,122.070,-31.250,-19.043,-17.090,0.000,0
1595392951.789,119.629,-27.344,-19.043,-10.742,0.000,0
1595392951.793,-91.309,-27.344,-18.555,0.000,0.000,0
1595392951.797,-125.488,-32.715,-32.715,9.277,0.000,0
1595392951.801,75.684,-33.203,-16.602,-6.348,0.000,0
1595392951.805,158.691,-32.227,-5.859,-19.531,0.000,0
1595392951.808,-29.785,-36.133,-28.320,-6.836,0.000,0
1595392951.812,-149.414,-41.504,-48.828,-13.184,0.000,0
1595392951.816,8.789,-41.016,-37.109,-28.809,0.000,0
