timestamps,TP9,AF7,AF8,TP10,Right AUX,Marker0
1596692430.849,-34.668,-27.344,-8.789,-28.320,0.000,0
1596692430.853,-36.133,-22.949,-10.254,-38.574,0.000,0
1596692430.857,-35.645,-21.973,-10.254,-41.016,0.000,0
1596692430.861,-22.949,-24.414,-10.254,-31.738,0.000,0
1596692430.865,-16.113,-21.484,-14.648,-29.297,0.000,0
1596692430.869,-35.645,-25.879,-17.090,-35.645,0.000,0
1596692430.873,-44.922,-29.297,-16.113,-37.109,0.000,0
1596692430.877,-41.016,-30.762,-16.602,-28.320,0.000,0
1596692430.881,-37.109,-32.227,-15.137,-17.578,0.000,0
1596692430.884,-33.691,-24.414,-7.324,-28.809,0.000,0
1596692430.888,-33.203,-23.438,-6.836,-35.645,0.000,0
1596692430.892,-27.832,-24.902,-11.719,-23.926,0.000,0
1596692430.896,-17.090,-20.508,-8.789,-11.719,0.000,0
1596692430.900,-9.277,-19.531,-9.766,-13.672,0.000,0
1596692430.904,-12.207,-18.066,-11.719,-25.879,0.000,0
1596692430.908,-20.996,-16.113,-11.719,-23.926,0.000,0
1596692430.912,-17.578,-19.531,-15.137,-12.695,0.000,0
1596692430.916,-13.184,-21.484,-14.160,-16.113,0.000,0
1596692430.920,-19.043,-22.949,-14.648,-30.762,0.000,0
1596692430.923,-25.879,-27.344,-14.160,-30.273,0.000,0
1596692430.927,-29.297,-30.273,-16.113,-26.855,0.000,0
1596692430.931,-20.508,-31.738,-20.020,-35.645,0.000,0
1596692430.935,-20.996,-30.273,-16.113,-39.551,0.000,0
1596692430.939,-28.320,-29.297,-16.113,-41.992,0.000,0
1596692430.943,-21.973,-29.297,-19.531,-35.645,0.000,0
1596692430.947,-21.973,-26.855,-18.066,-26.855,0.000,0
1596692430.951,-27.344,-28.809,-19.531,-25.391,0.000,0
1596692430.955,-35.156,-33.203,-23.438,-30.273,0.000,0
1596692430.959,-40.039,-29.785,-26.367,-41.016,0.000,0
1596692430.963,-37.598,-25.391,-22.461,-32.227,0.000,0
1596692430.966,-30.273,-25.879,-18.555,-20.996,0.000,0
1596692430.970,-22.949,-24.902,-15.137,-36.133,0.000,0
1596692430.974,-24.902,-20.508,-12.695,-44.922,0.000,0
1596692430.978,-26.855,-22.461,-16.113,-29.785,0.000,0
1596692430.982,-26.855,-27.344,-21.484,-28.809,0.000,0
1596692430.986,-29.297,-31.250,-23.438,-37.598,0.000,0
1596692430.990,-26.855,-31.250,-18.555,-33.691,0.000,0
1596692430.994,-19.043,-26.855,-15.625,-24.414,0.000,0
1596692430.998,-17.090,-25.391,-19.531,-21.973,0.000,0
1596692431.002,-29.785,-24.414,-17.578,-28.809,0.000,0
1596692431.006,-37.109,-22.949,-14.160,-30.762,0.000,0
1596692431.009,-29.297,-23.926,-17.090,-30.762,0.000,0
1596692431.013,-16.602,-25.391,-18.066,-15.625,0.000,0
1596692431.017,-16.113,-20.020,-12.207,-10.742,0.000,0
1596692431.021,-17.578,-17.090,-8.789,-34.668,0.000,0
1596692431.025,-11.719,-18.066,-5.859,-29.785,0.000,0
1596692431.029,-7.812,-22.461,-2.930,-10.254,0.000,0
1596692431.033,-2.930,-23.926,-2.930,-7.812,0.000,0
1596692431.037,-15.137,-20.508,-5.371,-15.137,0.000,0
1596692431.041,-26.855,-26.855,-6.348,-19.043,0.000,0
1596692431.045,-21.973,-27.832,-1.953,-21.484,0.000,0
1596692431.048,-20.996,-20.020,-0.488,-26.855,0.000,0
1596692431.052,-26.367,-19.531,-2.930,-37.109,0.000,0
1596692431.056,-20.996,-22.461,-4.883,-47.363,0.000,0
1596692431.060,-17.578,-19.531,-4.395,-32.715,0.000,0
1596692431.064,-22.461,-17.090,0.488,-20.996,0.000,0
1596692431.068,-22.949,-21.484,2.441,-36.621,0.000,0
1596692431.072,-23.926,-26.855,-0.977,-34.180,0.000,0
1596692431.076,-22.461,-28.320,-0.977,-18.555,0.000,0
1596692431.080,-17.578,-20.508,0.977,-21.484,0.000,0
1596692431.084,-17.090,-16.113,0.488,-26.367,0.000,0
1596692431.088,-24.902,-18.555,2.441,-32.227,0.000,0
1596692431.091,-29.297,-21.973,-1.953,-36.133,0.000,0
1596692431.095,-28.809,-24.902,-7.324,-28.320,0.000,0
1596692431.099,-30.762,-26.855,-9.277,-28.809,0.000,0
1596692431.103,-35.645,-33.691,-9.766,-35.156,0.000,0
1596692431.107,-41.992,-41.016,-6.836,-39.062,0.000,0
1596692431.111,-36.133,-43.457,-12.207,-37.109,0.000,0
1596692431.115,-20.996,-44.434,-19.043,-24.414,0.000,0
1596692431.119,-30.273,-41.016,-18.555,-20.996,0.000,0
1596692431.123,-42.969,-28.809,-12.207,-43.457,0.000,0
1596692431.127,-29.785,-25.879,-5.371,-36.621,0.000,0
1596692431.131,-18.066,-27.832,-13.184,-19.043,0.000,0
1596692431.134,-19.043,-26.855,-17.090,-25.879,0.000,0
1596692431.138,-23.438,-27.832,-11.719,-33.203,0.000,0
1596692431.142,-21.973,-28.809,-10.254,-33.691,0.000,0
1596692431.146,-18.066,-28.809,-11.230,-18.066,0.000,0
1596692431.150,-23.438,-29.785,-12.695,-18.066,0.000,0
1596692431.154,-35.156,-31.738,-14.160,-40.527,0.000,0
1596692431.158,-33.203,-30.762,-12.207,-36.621,0.000,0
1596692431.162,-26.855,-34.180,-15.137,-27.344,0.000,0
1596692431.166,-31.250,-32.715,-20.020,-31.250,0.000,0
1596692431.170,-31.250,-23.926,-14.160,-37.109,0.000,0
1596692431.173,-27.832,-26.367,-10.254,-32.227,0.000,0
1596692431.177,-20.996,-34.180,-8.301,-22.949,0.000,0
1596692431.181,-13.184,-34.180,-6.836,-17.578,0.000,0
1596692431.185,-19.531,-30.762,-3.906,-22.461,0.000,0
1596692431.189,-29.785,-34.180,-7.812,-35.156,0.000,0
1596692431.193,-26.855,-29.297,-3.906,-29.785,0.000,0
1596692431.197,-20.996,-26.855,1.953,-20.996,0.000,0
1596692431.201,-16.113,-26.367,-0.977,-24.414,0.000,0
1596692431.205,-13.672,-20.996,-2.930,-26.855,0.000,0
1596692431.209,-16.113,-25.879,-1.465,-20.996,0.000,0
1596692431.213,-14.648,-27.344,-2.441,-12.695,0.000,0
1596692431.216,-10.742,-22.949,-4.883,-13.184,0.000,0
1596692431.220,-9.766,-27.832,-11.230,-23.438,0.000,0
1596692431.224,-15.137,-32.227,-17.090,-27.344,0.000,0
1596692431.228,-10.254,-32.227,-12.695,-18.555,0.000,0
1596692431.232,-3.906,-32.227,-10.742,-16.113,0.000,0
1596692431.236,-17.090,-38.574,-11.719,-34.668,0.000,0
1596692431.240,-33.203,-41.016,-9.277,-35.645,0.000,0
1596692431.244,-28.320,-39.551,-9.277,-25.879,0.000,0
1596692431.248,-21.484,-41.016,-9.277,-22.461,0.000,0
1596692431.252,-21.484,-39.551,-14.648,-19.531,0.000,0
1596692431.256,-30.273,-37.109,-16.602,-30.273,0.000,0
1596692431.259,-32.715,-33.691,-8.301,-32.227,0.000,0
1596692431.263,-18.555,-32.227,-7.812,-20.020,0.000,0
1596692431.267,-14.648,-27.832,-2.930,-25.391,0.000,0
1596692431.271,-11.719,-19.531,3.418,-41.504,0.000,0
1596692431.275,-19.531,-20.996,-6.836,-46.387,0.000,0
1596692431.279,-29.785,-30.273,-11.230,-35.156,0.000,0
1596692431.283,-30.273,-30.273,-12.207,-28.320,0.000,0
1596692431.287,-30.762,-29.297,-15.625,-36.621,0.000,0
1596692431.291,-27.344,-25.391,-13.184,-39.551,0.000,0
1596692431.295,-17.090,-21.973,-6.348,-32.227,0.000,0
1596692431.298,-17.578,-27.344,-5.371,-22.949,0.000,0
1596692431.302,-30.762,-25.391,-1.953,-31.250,0.000,0
1596692431.306,-35.156,-24.902,-1.465,-43.945,0.000,0
1596692431.310,-40.039,-26.855,-4.395,-37.598,0.000,0
1596692431.314,-38.086,-25.391,-3.906,-25.391,0.000,0
1596692431.318,-30.762,-24.414,-0.488,-29.297,0.000,0
1596692431.322,-29.785,-24.902,-2.441,-32.227,0.000,0
1596692431.326,-28.809,-29.297,-6.348,-28.809,0.000,0
1596692431.330,-24.414,-26.855,-6.348,-21.973,0.000,0
1596692431.334,-20.996,-23.438,-5.859,-19.531,0.000,0
1596692431.338,-22.461,-27.832,-2.930,-26.855,0.000,0
1596692431.341,-20.020,-30.762,-3.418,-18.066,0.000,0
1596692431.345,-16.113,-28.809,-3.418,-2.930,0.000,0
1596692431.349,-20.508,-28.320,0.488,-9.277,0.000,0
1596692431.353,-22.949,-29.297,0.977,-12.207,0.000,0
1596692431.357,-15.625,-28.809,1.953,-9.766,0.000,0
1596692431.361,-13.672,-28.320,-0.977,-8.301,0.000,0
1596692431.365,-26.367,-29.297,-5.371,-9.766,0.000,0
1596692431.369,-33.691,-32.227,-7.324,-30.273,0.000,0
1596692431.373,-28.809,-28.809,-7.812,-32.227,0.000,0
1596692431.377,-31.250,-25.879,-12.207,-25.391,0.000,0
1596692431.381,-34.668,-30.762,-10.742,-24.902,0.000,0
1596692431.384,-26.855,-31.250,-7.812,-20.020,0.000,0
1596692431.388,-35.156,-31.250,-12.207,-36.133,0.000,0
1596692431.392,-34.668,-22.461,-8.301,-32.715,0.000,0
1596692431.396,-26.367,-19.531,-7.324,-18.555,0.000,0
1596692431.400,-28.809,-24.902,-11.719,-27.344,0.000,0
1596692431.404,-35.645,-21.973,-20.508,-43.457,0.000,0
1596692431.408,-40.527,-23.438,-24.414,-56.641,0.000,0
1596692431.412,-43.457,-27.832,-21.973,-47.852,0.000,0
1596692431.416,-42.969,-24.902,-23.438,-36.621,0.000,0
1596692431.420,-42.969,-23.438,-18.066,-48.828,0.000,0
1596692431.423,-42.480,-25.879,-14.648,-56.641,0.000,0
1596692431.427,-31.250,-29.785,-18.555,-46.387,0.000,0
1596692431.431,-25.879,-35.156,-24.902,-33.691,0.000,0
1596692431.435,-30.762,-28.809,-23.438,-39.551,0.000,0
1596692431.439,-36.621,-17.578,-18.066,-48.828,0.000,0
1596692431.443,-33.691,-19.531,-12.695,-40.527,0.000,0
1596692431.447,-27.344,-30.273,-13.672,-37.109,0.000,0
1596692431.451,-29.785,-28.809,-15.137,-38.574,0.000,0
1596692431.455,-35.645,-20.508,-10.254,-46.387,0.000,0
1596692431.459,-29.785,-24.414,-7.324,-42.480,0.000,0
1596692431.463,-24.414,-30.273,-4.395,-31.250,0.000,0
1596692431.466,-31.738,-28.809,-4.395,-31.738,0.000,0
1596692431.470,-32.715,-26.855,-5.859,-31.250,0.000,0
1596692431.474,-33.691,-30.762,-10.742,-39.062,0.000,0
1596692431.478,-29.785,-34.180,-13.672,-37.598,0.000,0
1596692431.482,-26.855,-30.762,-8.301,-26.855,0.000,0
1596692431.486,-36.621,-27.344,-11.230,-36.621,0.000,0
1596692431.490,-40.527,-29.297,-19.531,-43.945,0.000,0
1596692431.494,-31.738,-30.762,-15.137,-34.668,0.000,0
1596692431.498,-22.949,-30.273,-13.184,-26.367,0.000,0
1596692431.502,-33.691,-29.297,-11.719,-38.574,0.000,0
1596692431.506,-44.922,-33.691,-9.277,-46.875,0.000,0
1596692431.509,-39.551,-32.227,-11.719,-35.156,0.000,0
1596692431.513,-36.621,-26.367,-9.766,-35.156,0.000,0
1596692431.517,-37.109,-31.738,-5.859,-40.039,0.000,0
1596692431.521,-38.574,-36.621,-12.207,-47.363,0.000,0
1596692431.525,-39.062,-36.133,-19.043,-41.504,0.000,0
1596692431.529,-33.691,-33.691,-22.461,-32.715,0.000,0
1596692431.533,-35.645,-35.645,-22.949,-35.645,0.000,0
1596692431.537,-39.062,-37.598,-18.066,-32.227,0.000,0
1596692431.541,-38.574,-32.715,-16.113,-31.250,0.000,0
1596692431.545,-35.156,-24.902,-16.602,-31.738,0.000,0
1596692431.548,-26.855,-23.926,-11.230,-23.438,0.000,0
1596692431.552,-25.391,-23.438,-1.953,-22.949,0.000,0
1596692431.556,-22.461,-21.973,1.953,-30.762,0.000,0
1596692431.560,-15.137,-23.926,-3.418,-29.785,0.000,0
1596692431.564,-18.555,-27.344,-10.254,-26.855,0.000,0
1596692431.568,-20.508,-27.344,-6.348,-26.367,0.000,0
1596692431.572,-20.996,-24.414,-9.277,-29.297,0.000,0
1596692431.576,-25.391,-22.461,-14.160,-34.180,0.000,0
1596692431.580,-34.668,-27.832,-15.625,-30.273,0.000,0
1596692431.584,-35.645,-32.227,-16.113,-27.832,0.000,0
1596692431.588,-37.598,-26.855,-12.695,-40.039,0.000,0
1596692431.591,-38.574,-20.508,-13.184,-41.992,0.000,0
1596692431.595,-33.203,-31.250,-17.578,-32.715,0.000,0
1596692431.599,-31.738,-37.109,-16.602,-25.391,0.000,0
1596692431.603,-30.762,-28.320,-7.324,-35.156,0.000,0
1596692431.607,-30.762,-30.273,-4.883,-34.180,0.000,0
1596692431.611,-28.320,-33.203,-5.859,-20.996,0.000,0
1596692431.615,-23.926,-32.715,-4.395,-18.555,0.000,0
1596692431.619,-22.461,-24.414,-1.953,-23.438,0.000,0
1596692431.623,-17.578,-19.531,-4.395,-37.109,0.000,0
1596692431.627,-17.090,-23.438,-10.254,-27.344,0.000,0
1596692431.631,-22.949,-24.902,-12.207,-15.137,0.000,0
1596692431.634,-22.461,-27.344,-12.207,-25.879,0.000,0
1596692431.638,-21.484,-29.785,-10.742,-37.109,0.000,0
1596692431.642,-17.578,-27.344,-7.324,-33.691,0.000,0
1596692431.646,-16.113,-24.414,-12.695,-26.855,0.000,0
1596692431.650,-11.230,-17.578,-10.254,-34.668,0.000,0
1596692431.654,-10.254,-17.578,-4.883,-38.086,0.000,0
1596692431.658,-17.578,-23.438,-8.301,-38.574,0.000,0
1596692431.662,-11.230,-20.996,-10.254,-34.668,0.000,0
1596692431.666,-4.883,-23.926,-5.859,-23.926,0.000,0
1596692431.670,-0.977,-26.855,-4.883,-26.367,0.000,0
1596692431.673,-5.859,-30.273,-6.836,-28.809,0.000,0
1596692431.677,-11.719,-26.367,-3.418,-22.461,0.000,0
1596692431.681,-11.719,-20.996,-2.930,-17.090,0.000,0
1596692431.685,-15.137,-28.809,-10.254,-29.297,0.000,0
1596692431.689,-13.184,-31.738,-9.277,-34.668,0.000,0
1596692431.693,-20.020,-24.414,-5.859,-26.367,0.000,0
1596692431.697,-28.809,-22.949,-11.230,-22.461,0.000,0
1596692431.701,-17.090,-25.879,-8.301,-15.137,0.000,0
1596692431.705,-12.695,-22.949,-2.930,-21.484,0.000,0
1596692431.709,-15.137,-21.973,-1.465,-26.855,0.000,0
1596692431.713,-18.555,-30.762,-3.906,-23.926,0.000,0
1596692431.716,-25.391,-25.391,-3.418,-24.902,0.000,0
1596692431.720,-29.785,-20.508,0.000,-26.367,0.000,0
1596692431.724,-34.180,-21.973,-1.953,-32.227,0.000,0
1596692431.728,-31.250,-19.531,-1.953,-24.414,0.000,0
1596692431.732,-20.508,-18.555,1.465,-20.996,0.000,0
1596692431.736,-25.879,-25.879,-3.418,-30.762,0.000,2
1596692431.740,-35.156,-37.109,-11.719,-39.062,0.000,0
1596692431.744,-33.203,-38.086,-14.160,-37.109,0.000,0
1596692431.748,-25.879,-37.598,-8.301,-22.949,0.000,0
1596692431.752,-18.066,-33.203,0.488,-17.090,0.000,0
1596692431.756,-23.926,-29.785,-1.953,-29.297,0.000,0
1596692431.759,-24.902,-30.273,-7.812,-23.926,0.000,0
1596692431.763,-13.184,-27.832,-3.906,-4.883,0.000,0
1596692431.767,-8.301,-24.414,1.465,-16.113,0.000,0
1596692431.771,-17.578,-25.391,-2.930,-35.156,0.000,0
1596692431.775,-27.832,-30.762,-10.254,-31.250,0.000,0
1596692431.779,-27.832,-27.344,-10.254,-23.926,0.000,0
1596692431.783,-33.691,-28.320,-13.672,-31.738,0.000,0
1596692431.787,-32.715,-30.273,-13.672,-40.527,0.000,0
1596692431.791,-30.762,-28.809,-11.230,-34.668,0.000,0
1596692431.795,-32.715,-29.785,-10.254,-23.926,0.000,0
1596692431.798,-32.227,-22.949,-11.719,-23.926,0.000,0
1596692431.802,-32.715,-23.926,-12.695,-36.133,0.000,0
1596692431.806,-28.809,-28.809,-13.672,-36.621,0.000,0
1596692431.810,-28.809,-25.391,-17.090,-25.391,0.000,0
1596692431.814,-31.250,-20.996,-13.184,-18.066,0.000,0
1596692431.818,-27.344,-24.414,-8.301,-14.160,0.000,0
1596692431.822,-29.297,-20.996,-4.883,-18.066,0.000,0
1596692431.826,-26.855,-17.578,-6.836,-29.297,0.000,0
1596692431.830,-19.531,-20.996,-8.301,-30.762,0.000,0
1596692431.834,-22.949,-25.391,-7.812,-23.926,0.000,0
1596692431.838,-28.320,-28.320,-9.277,-34.668,0.000,0
1596692431.841,-15.625,-23.926,-8.301,-31.738,0.000,0
1596692431.845,-5.859,-20.996,-5.371,-18.066,0.000,0
1596692431.849,-16.602,-22.949,-7.812,-11.719,0.000,0
1596692431.853,-20.996,-27.832,-11.719,-14.648,0.000,0
1596692431.857,-20.508,-29.785,-7.812,-26.367,0.000,0
1596692431.861,-17.090,-23.926,-0.977,-17.578,0.000,0
1596692431.865,-9.766,-25.391,-5.371,-9.766,0.000,0
1596692431.869,-8.789,-26.367,-8.789,-15.625,0.000,0
1596692431.873,-15.625,-22.949,-6.348,-29.297,0.000,0
1596692431.877,-18.066,-21.484,-4.395,-30.762,0.000,0
1596692431.881,-9.277,-19.531,-7.812,-13.672,0.000,0
1596692431.884,-10.254,-21.973,-13.184,-15.625,0.000,0
1596692431.888,-22.949,-25.391,-16.113,-37.109,0.000,0
1596692431.892,-21.973,-24.414,-17.090,-32.715,0.000,0
1596692431.896,-9.766,-25.879,-12.695,-9.277,0.000,0
1596692431.900,-7.324,-29.785,-13.184,-17.090,0.000,0
1596692431.904,-16.602,-26.855,-10.742,-35.156,0.000,0
1596692431.908,-17.090,-24.414,-3.906,-29.785,0.000,0
1596692431.912,-19.531,-28.809,-6.836,-19.531,0.000,0
1596692431.916,-34.668,-30.762,-12.207,-23.926,0.000,0
1596692431.920,-39.551,-26.855,-10.742,-35.645,0.000,0
1596692431.923,-37.109,-31.738,-13.184,-37.598,0.000,0
1596692431.927,-27.344,-30.762,-14.160,-24.414,0.000,0
1596692431.931,-26.367,-33.203,-13.184,-17.578,0.000,0
1596692431.935,-35.645,-35.156,-13.672,-29.785,0.000,0
1596692431.939,-37.109,-28.809,-13.672,-31.250,0.000,0
1596692431.943,-35.645,-33.691,-10.742,-24.414,0.000,0
1596692431.947,-33.691,-37.109,-4.395,-19.531,0.000,0
1596692431.951,-33.691,-32.715,2.441,-16.602,0.000,0
1596692431.955,-38.086,-36.133,0.488,-24.414,0.000,0
1596692431.959,-28.320,-38.574,-6.348,-14.160,0.000,0
1596692431.963,-12.695,-31.738,-5.371,3.906,0.000,0
1596692431.966,-8.789,-28.320,0.000,1.465,0.000,0
1596692431.970,-26.855,-25.391,-0.977,-24.414,0.000,0
1596692431.974,-30.273,-22.949,-4.883,-32.227,0.000,0
1596692431.978,-6.836,-25.879,-4.883,-17.090,0.000,0
1596692431.982,-2.930,-24.902,-0.977,-12.695,0.000,0
1596692431.986,-14.648,-25.879,3.906,-12.207,0.000,0
1596692431.990,-11.230,-31.250,-9.277,-8.789,0.000,0
1596692431.994,-4.395,-35.645,-16.602,-10.742,0.000,0
1596692431.998,-5.371,-37.598,-14.648,-8.789,0.000,0
1596692432.002,-2.441,-35.156,-16.602,-2.930,0.000,0
1596692432.006,-5.371,-30.762,-17.578,-15.137,0.000,0
1596692432.009,-9.277,-24.902,-14.648,-20.508,0.000,0
1596692432.013,-5.859,-26.855,-16.113,-11.230,0.000,0
1596692432.017,-7.324,-33.691,-16.602,-8.301,0.000,0
1596692432.021,-3.418,-31.738,-12.695,-14.160,0.000,0
1596692432.025,-8.301,-25.391,-16.113,-18.555,0.000,0
1596692432.029,-15.137,-29.297,-17.578,-8.301,0.000,0
1596692432.033,-16.113,-35.156,-12.207,-4.395,0.000,0
1596692432.037,-23.438,-31.738,-13.672,-24.414,0.000,0
1596692432.041,-20.508,-28.320,-19.531,-27.832,0.000,0
1596692432.045,-7.324,-26.367,-17.090,-12.207,0.000,0
1596692432.048,0.000,-26.367,-9.277,-13.672,0.000,0
1596692432.052,-6.348,-26.855,-5.371,-15.137,0.000,0
1596692432.056,-16.602,-22.949,-5.371,-16.113,0.000,0
1596692432.060,-19.531,-19.043,-8.301,-11.719,0.000,0
1596692432.064,-25.879,-25.391,-8.301,-10.742,0.000,0
1596692432.068,-30.273,-20.996,-3.906,-20.020,0.000,0
1596692432.072,-29.785,-16.113,-9.766,-32.227,0.000,0
1596692432.076,-31.738,-28.809,-15.625,-36.133,0.000,0
1596692432.080,-27.832,-36.133,-13.184,-25.879,0.000,0
1596692432.084,-28.809,-38.574,-14.160,-30.762,0.000,0
1596692432.088,-37.109,-42.969,-19.531,-41.504,0.000,0
1596692432.091,-36.133,-41.992,-20.020,-26.855,0.000,0
1596692432.095,-28.320,-39.062,-16.113,-8.301,0.000,0
1596692432.099,-27.832,-35.156,-15.625,-26.855,0.000,0
1596692432.103,-27.344,-32.227,-14.648,-38.574,0.000,0
1596692432.107,-22.461,-30.762,-15.625,-35.156,0.000,0
1596692432.111,-28.320,-34.668,-19.531,-33.203,0.000,0
1596692432.115,-29.785,-29.785,-19.043,-31.738,0.000,0
1596692432.119,-20.508,-26.367,-17.578,-37.598,0.000,0
1596692432.123,-19.043,-26.367,-16.113,-39.551,0.000,0
1596692432.127,-32.715,-26.367,-16.113,-27.344,0.000,0
1596692432.131,-31.250,-28.809,-15.137,-20.020,0.000,0
1596692432.134,-23.926,-27.832,-8.789,-21.484,0.000,0
1596692432.138,-27.832,-28.320,-4.395,-23.926,0.000,0
1596692432.142,-29.297,-24.902,-2.930,-25.879,0.000,0
1596692432.146,-20.996,-27.344,-0.977,-21.484,0.000,0
1596692432.150,-17.090,-28.809,-1.465,-29.785,0.000,0
1596692432.154,-28.809,-27.832,-8.301,-41.016,0.000,0
1596692432.158,-32.227,-26.855,-6.348,-35.156,0.000,0
1596692432.162,-25.879,-23.926,-4.883,-30.273,0.000,0
1596692432.166,-25.879,-27.832,-11.719,-33.203,0.000,0
1596692432.170,-34.180,-26.367,-8.789,-32.227,0.000,0
1596692432.173,-35.156,-23.438,-1.465,-29.297,0.000,0
1596692432.177,-33.691,-28.320,-0.977,-28.320,0.000,0
1596692432.181,-27.344,-35.645,-5.371,-28.320,0.000,0
1596692432.185,-27.344,-30.273,-9.277,-32.715,0.000,0
1596692432.189,-30.762,-24.902,-10.742,-38.574,0.000,0
1596692432.193,-25.391,-24.902,-11.230,-34.668,0.000,0
1596692432.197,-23.438,-28.320,-15.625,-21.973,0.000,0
1596692432.201,-18.555,-29.297,-11.230,-25.391,0.000,0
1596692432.205,-30.273,-27.344,-5.859,-44.922,0.000,0
1596692432.209,-41.992,-34.668,-8.789,-44.922,0.000,0
1596692432.213,-38.086,-40.527,-9.277,-30.762,0.000,0
1596692432.216,-40.527,-42.480,-8.301,-28.809,0.000,0
1596692432.220,-41.504,-43.945,-10.254,-42.969,0.000,0
1596692432.224,-38.086,-38.086,-13.184,-47.363,0.000,0
1596692432.228,-34.668,-33.203,-9.277,-34.180,0.000,0
1596692432.232,-37.109,-37.598,-11.230,-33.203,0.000,0
1596692432.236,-36.133,-39.551,-8.789,-38.086,0.000,0
1596692432.240,-31.738,-45.410,-8.301,-36.621,0.000,0
1596692432.244,-23.438,-42.480,-12.207,-30.273,0.000,0
1596692432.248,-23.438,-30.762,-6.348,-31.250,0.000,0
1596692432.252,-30.273,-29.297,-4.395,-33.691,0.000,0
1596692432.256,-30.762,-30.762,-9.766,-33.203,0.000,0
1596692432.259,-21.973,-26.855,-5.859,-26.367,0.000,0
1596692432.263,-11.719,-22.949,3.418,-14.648,0.000,0
1596692432.267,-15.625,-27.344,-2.441,-26.367,0.000,0
1596692432.271,-26.855,-27.344,-11.230,-44.922,0.000,0
1596692432.275,-28.320,-24.902,-12.695,-41.016,0.000,0
1596692432.279,-22.949,-25.879,-13.672,-29.785,0.000,0
1596692432.283,-29.785,-27.344,-13.184,-31.250,0.000,0
1596692432.287,-36.133,-23.926,-14.648,-44.434,0.000,0
1596692432.291,-30.762,-16.602,-15.625,-44.434,0.000,0
1596692432.295,-33.203,-9.277,-2.441,-40.039,0.000,0
1596692432.298,-34.668,-13.672,1.465,-31.738,0.000,0
1596692432.302,-25.879,-18.066,-0.977,-22.461,0.000,0
1596692432.306,-24.902,-20.508,3.906,-32.227,0.000,0
1596692432.310,-31.738,-26.367,4.395,-33.203,0.000,0
1596692432.314,-29.785,-28.320,2.441,-15.625,0.000,0
1596692432.318,-28.320,-37.598,4.395,-18.066,0.000,0
1596692432.322,-28.809,-43.945,1.465,-30.273,0.000,0
1596692432.326,-30.273,-38.574,-1.953,-29.297,0.000,0
1596692432.330,-26.855,-35.156,0.000,-19.531,0.000,0
1596692432.334,-26.855,-39.062,-0.488,-20.020,0.000,0
1596692432.338,-36.621,-36.133,-3.418,-41.992,0.000,0
1596692432.341,-33.691,-32.715,1.465,-40.527,0.000,0
1596692432.345,-28.320,-34.668,1.953,-21.484,0.000,0
1596692432.349,-30.273,-36.133,-3.418,-26.855,0.000,0
1596692432.353,-27.344,-32.715,0.977,-35.156,0.000,0
1596692432.357,-20.508,-30.762,6.348,-26.367,0.000,0
1596692432.361,-14.160,-32.227,8.789,-18.555,0.000,0
1596692432.365,-16.602,-26.855,12.695,-22.461,0.000,0
1596692432.369,-29.785,-25.391,10.254,-22.949,0.000,0
1596692432.373,-35.156,-32.227,3.418,-25.879,0.000,0
1596692432.377,-35.645,-39.062,-0.977,-19.531,0.000,0
1596692432.381,-39.551,-37.109,-0.488,-16.113,0.000,0
1596692432.384,-34.180,-26.855,0.977,-25.879,0.000,0
1596692432.388,-30.762,-29.297,-5.371,-34.668,0.000,0
1596692432.392,-32.715,-36.133,-6.836,-31.250,0.000,0
1596692432.396,-27.832,-30.273,-1.465,-15.625,0.000,0
1596692432.400,-22.461,-23.926,0.977,-18.555,0.000,0
1596692432.404,-22.949,-28.320,0.488,-30.273,0.000,0
1596692432.408,-22.949,-28.320,0.977,-27.344,0.000,0
1596692432.412,-20.508,-22.461,-4.395,-16.602,0.000,0
1596692432.416,-23.438,-25.391,-14.160,-21.484,0.000,0
1596692432.420,-26.367,-27.832,-16.602,-34.180,0.000,0
1596692432.423,-24.902,-28.809,-14.648,-32.227,0.000,0
1596692432.427,-10.742,-25.879,-11.719,-20.508,0.000,0
1596692432.431,-4.883,-23.926,-8.789,-15.137,0.000,0
1596692432.435,-14.648,-24.414,-2.441,-22.461,0.000,0
1596692432.439,-12.207,-21.973,-0.488,-27.832,0.000,0
1596692432.443,-13.184,-22.949,-2.441,-17.578,0.000,0
1596692432.447,-17.578,-24.414,-0.488,-13.184,0.000,0
1596692432.451,-5.371,-19.531,0.488,-19.043,0.000,0
1596692432.455,-7.812,-13.672,1.465,-26.855,0.000,0
1596692432.459,-18.066,-12.695,2.930,-24.902,0.000,0
1596692432.463,-8.301,-14.160,2.930,-13.184,0.000,0
1596692432.466,-6.836,-18.555,-1.465,-14.160,0.000,0
1596692432.470,-17.578,-17.090,-2.441,-25.391,0.000,0
1596692432.474,-14.160,-9.766,-0.977,-24.414,0.000,0
1596692432.478,-8.789,-10.742,-5.371,-17.090,0.000,0
1596692432.482,-9.766,-15.137,-11.719,-20.508,0.000,0
1596692432.486,-15.625,-18.066,-11.230,-27.344,0.000,0
1596692432.490,-18.555,-19.043,-8.789,-26.367,0.000,0
1596692432.494,-14.160,-18.555,-8.301,-18.066,0.000,0
1596692432.498,-10.742,-17.578,0.977,-15.137,0.000,0
1596692432.502,-9.277,-18.066,7.812,-23.926,0.000,0
1596692432.506,-10.254,-17.578,5.859,-26.855,0.000,0
1596692432.509,-15.625,-21.484,1.953,-14.648,0.000,0
1596692432.513,-11.719,-25.879,5.371,-0.977,0.000,0
1596692432.517,-7.324,-20.020,9.766,-2.441,0.000,0
1596692432.521,-16.602,-18.555,7.812,-19.531,0.000,0
1596692432.525,-21.973,-20.020,3.906,-24.902,0.000,0
1596692432.529,-18.555,-22.461,3.906,-15.625,0.000,0
1596692432.533,-16.602,-24.414,5.859,-18.555,0.000,0
1596692432.537,-23.438,-31.250,4.883,-28.320,0.000,0
1596692432.541,-28.320,-34.668,2.441,-32.715,0.000,0
1596692432.545,-17.090,-24.902,-2.441,-27.832,0.000,0
1596692432.548,-18.066,-24.414,-5.859,-28.320,0.000,0
1596692432.552,-29.297,-26.855,-6.836,-37.109,0.000,0
1596692432.556,-22.949,-30.273,-10.254,-31.738,0.000,0
1596692432.560,-15.625,-31.250,-12.695,-20.996,0.000,0
1596692432.564,-20.020,-24.414,-10.254,-20.996,0.000,0
1596692432.568,-25.879,-28.320,-9.766,-28.320,0.000,0
1596692432.572,-28.320,-36.133,-16.602,-44.434,0.000,0
1596692432.576,-28.320,-32.227,-14.648,-40.527,0.000,0
1596692432.580,-20.996,-26.367,-5.859,-24.902,0.000,0
1596692432.584,-20.508,-26.855,-6.836,-23.438,0.000,0
1596692432.588,-31.250,-25.879,-16.602,-31.250,0.000,0
1596692432.591,-28.809,-22.461,-21.973,-31.738,0.000,0
1596692432.595,-21.973,-23.438,-17.578,-24.414,0.000,0
1596692432.599,-21.973,-21.973,-13.672,-20.020,0.000,0
1596692432.603,-21.484,-27.344,-16.602,-24.902,0.000,0
1596692432.607,-32.227,-31.738,-12.695,-32.715,0.000,0
1596692432.611,-36.621,-30.762,-5.859,-27.344,0.000,0
1596692432.615,-30.762,-35.156,-5.371,-25.879,0.000,0
1596692432.619,-33.691,-36.621,-4.883,-30.762,0.000,0
1596692432.623,-36.621,-27.832,-3.906,-29.785,0.000,0
1596692432.627,-31.250,-20.508,-1.465,-30.762,0.000,0
1596692432.631,-27.344,-24.902,-8.301,-31.250,0.000,0
1596692432.634,-25.879,-28.320,-17.578,-34.180,0.000,0
1596692432.638,-31.738,-21.484,-19.043,-39.551,0.000,0
1596692432.642,-31.738,-21.484,-18.555,-33.691,0.000,0
1596692432.646,-17.090,-26.855,-20.020,-31.738,0.000,0
1596692432.650,-6.348,-25.391,-18.555,-30.273,0.000,0
1596692432.654,-24.902,-25.391,-14.160,-42.969,0.000,0
1596692432.658,-36.621,-22.949,-15.137,-47.852,0.000,0
1596692432.662,-22.949,-27.344,-15.137,-25.391,0.000,0
1596692432.666,-20.996,-28.809,-19.531,-26.367,0.000,0
1596692432.670,-24.414,-21.484,-17.090,-37.109,0.000,0
1596692432.673,-27.832,-21.973,-12.695,-37.109,0.000,0
1596692432.677,-27.832,-21.484,-15.137,-40.527,0.000,0
1596692432.681,-21.484,-18.066,-11.230,-33.203,0.000,0
1596692432.685,-21.973,-16.113,-4.395,-37.598,0.000,0
1596692432.689,-29.297,-19.043,-6.348,-53.711,0.000,0
1596692432.693,-27.832,-22.461,-6.836,-45.410,0.000,0
1596692432.697,-26.367,-22.461,-1.465,-31.738,0.000,0
1596692432.701,-31.738,-24.414,-3.906,-39.062,0.000,0
1596692432.705,-31.738,-22.949,-10.742,-49.316,0.000,0
1596692432.709,-24.414,-22.949,-15.625,-38.086,0.000,0
1596692432.713,-24.902,-21.973,-11.230,-28.320,0.000,0
1596692432.716,-24.414,-19.531,-8.789,-31.250,0.000,0
1596692432.720,-26.855,-26.855,-14.648,-38.086,0.000,0
1596692432.724,-31.250,-29.297,-8.789,-36.621,0.000,0
1596692432.728,-24.902,-26.855,1.953,-25.391,0.000,0
1596692432.732,-22.949,-32.227,0.977,-26.855,0.000,0
1596692432.736,-26.367,-33.203,-2.441,-32.715,0.000,0
1596692432.740,-22.949,-26.855,0.000,-30.273,0.000,0
1596692432.744,-17.090,-25.879,-2.930,-20.996,0.000,0
1596692432.748,-19.531,-26.367,-8.301,-24.414,0.000,0
1596692432.752,-26.367,-27.832,-10.742,-31.250,0.000,0
1596692432.756,-33.203,-31.738,-10.742,-34.668,0.000,0
1596692432.759,-27.832,-25.391,-6.348,-31.738,0.000,0
1596692432.763,-17.090,-22.461,-9.766,-25.391,0.000,0
1596692432.767,-17.090,-21.484,-14.160,-38.086,0.000,0
1596692432.771,-26.367,-22.461,-13.672,-48.828,0.000,0
1596692432.775,-27.344,-22.461,-11.719,-41.016,0.000,0
1596692432.779,-23.438,-26.855,-10.254,-28.809,0.000,0
1596692432.783,-20.020,-30.273,-9.766,-26.855,0.000,0
1596692432.787,-23.438,-29.297,-11.719,-41.016,0.000,0
1596692432.791,-22.949,-31.738,-10.254,-42.969,0.000,0
1596692432.795,-18.066,-29.785,-6.836,-24.902,0.000,0
1596692432.798,-18.066,-23.926,-8.789,-15.137,0.000,0
1596692432.802,-22.949,-27.832,-6.348,-29.785,0.000,0
1596692432.806,-31.738,-28.320,-7.324,-47.852,0.000,0
1596692432.810,-30.762,-24.902,-14.160,-42.969,0.000,0
1596692432.814,-22.949,-29.297,-13.672,-26.855,0.000,0
1596692432.818,-19.531,-23.926,-4.395,-32.715,0.000,0
1596692432.822,-26.855,-23.438,-2.441,-45.410,0.000,0
1596692432.826,-22.461,-31.738,-5.859,-35.645,0.000,0
1596692432.830,-21.973,-34.180,-6.836,-29.785,0.000,0
1596692432.834,-36.621,-34.668,-11.230,-38.574,0.000,0
1596692432.838,-38.086,-30.762,-16.602,-46.387,0.000,0
1596692432.841,-34.180,-31.738,-15.625,-44.434,0.000,0
1596692432.845,-25.879,-33.203,-9.766,-29.785,0.000,0
1596692432.849,-26.855,-27.344,-7.812,-26.855,0.000,0
1596692432.853,-39.551,-29.297,-10.254,-40.527,0.000,0
1596692432.857,-42.969,-33.203,-11.230,-44.434,0.000,0
1596692432.861,-32.227,-32.227,-8.789,-31.250,0.000,0
1596692432.865,-24.414,-30.273,-7.812,-25.391,0.000,0
1596692432.869,-28.320,-29.785,-8.301,-23.438,0.000,0
1596692432.873,-37.109,-31.250,-5.371,-29.785,0.000,0
1596692432.877,-37.598,-32.227,-6.836,-29.297,0.000,0
1596692432.881,-23.438,-28.320,-5.371,-15.137,0.000,0
1596692432.884,-27.832,-32.715,-6.836,-15.625,0.000,0
1596692432.888,-36.133,-37.109,-13.672,-29.785,0.000,0
1596692432.892,-27.832,-27.344,-14.648,-34.668,0.000,0
1596692432.896,-20.020,-21.484,-9.766,-21.484,0.000,0
1596692432.900,-22.949,-28.320,-6.836,-18.555,0.000,0
1596692432.904,-30.273,-27.832,-4.395,-31.738,0.000,0
1596692432.908,-27.344,-27.832,-0.977,-25.879,0.000,0
1596692432.912,-20.996,-29.785,0.488,-19.531,0.000,0
1596692432.916,-21.484,-27.832,-4.395,-21.973,0.000,0
1596692432.920,-39.062,-30.273,-5.371,-26.367,0.000,0
1596692432.923,-39.551,-26.855,-0.488,-31.738,0.000,0
1596692432.927,-22.461,-20.996,2.441,-23.438,0.000,0
1596692432.931,-18.555,-30.762,-2.930,-16.113,0.000,0
1596692432.935,-31.738,-37.109,-13.184,-28.320,0.000,0
1596692432.939,-40.039,-26.367,-8.301,-34.180,0.000,0
1596692432.943,-28.320,-21.973,-1.465,-23.926,0.000,0
1596692432.947,-21.484,-19.531,-2.930,-25.391,0.000,0
1596692432.951,-27.832,-19.531,-3.906,-26.367,0.000,0
1596692432.955,-32.715,-23.438,-1.953,-23.926,0.000,0
1596692432.959,-27.344,-24.414,-2.441,-26.855,0.000,0
1596692432.963,-19.043,-29.297,-2.930,-17.578,0.000,0
1596692432.966,-21.973,-32.227,1.953,-14.648,0.000,0
1596692432.970,-23.926,-27.832,1.953,-31.738,0.000,0
1596692432.974,-30.273,-36.133,-4.883,-31.738,0.000,0
1596692432.978,-37.109,-42.969,-7.324,-12.695,0.000,0
1596692432.982,-35.645,-38.086,-7.324,-20.508,0.000,0
1596692432.986,-37.109,-31.738,-8.789,-40.039,0.000,0
1596692432.990,-40.527,-31.250,-8.301,-39.551,0.000,0
1596692432.994,-32.715,-29.297,-8.789,-27.832,0.000,0
1596692432.998,-21.973,-22.949,-7.324,-28.809,0.000,0
1596692433.002,-29.297,-25.391,-6.348,-41.504,0.000,0
1596692433.006,-33.203,-25.879,-7.812,-41.016,0.000,0
1596692433.009,-23.926,-26.855,-13.184,-44.922,0.000,0
1596692433.013,-29.297,-28.809,-15.625,-43.457,0.000,0
1596692433.017,-35.156,-26.855,-10.742,-31.250,0.000,0
1596692433.021,-31.250,-25.391,-6.348,-31.250,0.000,0
1596692433.025,-36.133,-24.414,-7.324,-37.109,0.000,0
1596692433.029,-38.574,-24.414,-7.324,-33.691,0.000,0
1596692433.033,-36.621,-22.461,-2.930,-33.203,0.000,0
1596692433.037,-39.551,-26.855,-5.859,-39.062,0.000,0
1596692433.041,-39.551,-29.297,-4.883,-37.109,0.000,0
1596692433.045,-34.180,-28.320,-0.488,-28.320,0.000,0
1596692433.048,-29.785,-31.250,-0.977,-11.719,0.000,0
1596692433.052,-30.762,-32.227,0.488,-23.926,0.000,0
1596692433.056,-38.574,-30.762,-0.977,-40.527,0.000,0
1596692433.060,-39.062,-31.250,-5.371,-33.203,0.000,0
1596692433.064,-30.273,-31.250,-7.324,-29.297,0.000,0
1596692433.068,-35.156,-30.762,-4.883,-32.227,0.000,0
1596692433.072,-42.480,-32.715,-5.859,-40.039,0.000,0
1596692433.076,-39.551,-32.227,-6.836,-40.527,0.000,0
1596692433.080,-31.250,-32.715,-5.859,-22.461,0.000,0
1596692433.084,-30.762,-33.691,-4.883,-17.578,0.000,0
1596692433.088,-30.762,-31.250,-1.953,-35.156,0.000,0
1596692433.091,-27.344,-34.668,-9.277,-35.645,0.000,0
1596692433.095,-15.137,-41.016,-3.906,-10.742,0.000,0
1596692433.099,-3.418,-34.180,7.812,0.488,0.000,0
1596692433.103,-21.484,-20.996,1.465,-19.043,0.000,0
1596692433.107,-35.156,-15.625,-9.277,-33.203,0.000,0
1596692433.111,-29.785,-17.090,-11.230,-30.762,0.000,0
1596692433.115,-36.133,-17.578,-16.113,-39.062,0.000,0
1596692433.119,-31.250,-17.090,-23.438,-42.969,0.000,0
1596692433.123,-24.902,-16.602,-21.973,-37.109,0.000,0
1596692433.127,-35.645,-20.508,-26.855,-35.645,0.000,0
1596692433.131,-32.227,-15.137,-27.832,-25.391,0.000,0
1596692433.134,-29.785,-7.324,-20.020,-30.273,0.000,0
1596692433.138,-25.391,-9.766,-13.672,-33.691,0.000,0
1596692433.142,-16.602,-14.648,-11.230,-25.391,0.000,0
1596692433.146,-16.602,-16.602,-15.137,-19.531,0.000,0
1596692433.150,-15.625,-13.672,-16.602,-14.160,0.000,0
1596692433.154,-10.254,-15.625,-13.672,-14.648,0.000,0
1596692433.158,-8.301,-17.578,-10.742,-20.508,0.000,0
1596692433.162,-4.395,-15.625,-9.277,-16.113,0.000,0
1596692433.166,-2.441,-15.625,-9.766,-9.766,0.000,0
1596692433.170,-8.789,-16.602,-10.742,-20.020,0.000,0
1596692433.173,-11.719,-21.484,-5.859,-18.555,0.000,0
1596692433.177,-8.301,-20.508,-4.883,-13.184,0.000,0
1596692433.181,-9.766,-17.578,-10.254,-23.926,0.000,0
1596692433.185,-16.113,-19.531,-11.230,-29.297,0.000,0
1596692433.189,-18.066,-15.625,-10.742,-33.691,0.000,0
1596692433.193,-14.648,-15.137,-11.719,-31.250,0.000,0
1596692433.197,-12.695,-16.602,-19.043,-24.414,0.000,0
1596692433.201,-13.672,-16.602,-25.879,-22.949,0.000,0
1596692433.205,-16.602,-20.508,-13.672,-24.902,0.000,0
1596692433.209,-15.137,-19.531,-5.859,-23.438,0.000,0
1596692433.213,0.000,-15.625,-9.277,-12.207,0.000,0
1596692433.216,7.812,-15.137,-4.883,-3.418,0.000,0
1596692433.220,-9.277,-16.113,-3.906,-17.578,0.000,0
1596692433.224,-15.625,-19.531,-2.441,-24.414,0.000,0
1596692433.228,-14.648,-20.996,-3.418,-10.742,0.000,0
1596692433.232,-14.160,-20.020,-13.672,-13.672,0.000,0
1596692433.236,-13.184,-20.996,-10.742,-24.902,0.000,0
1596692433.240,-15.625,-20.996,-1.465,-22.949,0.000,0
1596692433.244,-9.766,-26.855,-4.883,-11.719,0.000,0
1596692433.248,-3.418,-27.832,-6.836,-8.301,0.000,0
1596692433.252,-10.254,-26.367,0.488,-11.230,0.000,0
1596692433.256,-23.438,-33.203,2.930,-20.508,0.000,0
1596692433.259,-21.973,-37.598,-4.883,-21.484,0.000,0
1596692433.263,-20.020,-35.156,-5.371,-7.324,0.000,0
1596692433.267,-20.508,-27.344,3.418,-5.859,0.000,0
1596692433.271,-17.578,-26.855,2.930,-16.113,0.000,0
1596692433.275,-19.043,-26.855,5.371,-15.625,0.000,0
1596692433.279,-18.555,-25.879,8.301,-7.324,0.000,0
1596692433.283,-15.625,-21.484,2.441,-11.230,0.000,0
1596692433.287,-20.020,-21.973,0.488,-25.879,0.000,0
1596692433.291,-18.555,-23.926,-1.953,-28.809,0.000,0
1596692433.295,-7.324,-24.414,-8.301,-21.973,0.000,0
1596692433.298,-6.348,-24.902,-10.742,-20.508,0.000,0
1596692433.302,-25.879,-22.949,-8.789,-34.180,0.000,0
1596692433.306,-27.344,-20.996,-7.324,-25.391,0.000,0
1596692433.310,-12.207,-19.531,-7.324,-6.348,0.000,0
1596692433.314,-16.113,-24.414,-5.371,-8.789,0.000,0
1596692433.318,-17.090,-27.832,-0.488,-12.695,0.000,0
1596692433.322,-20.996,-30.273,-2.930,-23.926,0.000,0
1596692433.326,-21.973,-23.438,-6.836,-19.531,0.000,0
1596692433.330,-18.066,-17.578,-5.371,-2.930,0.000,0
1596692433.334,-26.367,-22.949,-4.883,-17.090,0.000,0
1596692433.338,-24.902,-23.926,-6.836,-31.738,0.000,0
1596692433.341,-20.996,-20.020,-10.742,-27.832,0.000,0
1596692433.345,-25.879,-23.438,-11.719,-20.996,0.000,0
1596692433.349,-22.949,-27.344,-10.254,-25.879,0.000,0
1596692433.353,-23.438,-23.926,-7.812,-38.574,0.000,0
1596692433.357,-22.461,-20.508,-2.930,-32.227,0.000,0
1596692433.361,-15.137,-18.555,-3.418,-19.531,0.000,0
1596692433.365,-11.230,-21.484,-6.348,-19.531,0.000,0
1596692433.369,-18.555,-22.949,-4.883,-25.879,0.000,0
1596692433.373,-30.762,-24.414,-7.324,-29.297,0.000,0
1596692433.377,-34.180,-25.879,-12.695,-22.461,0.000,0
1596692433.381,-33.691,-22.461,-11.230,-15.625,0.000,0
1596692433.384,-36.133,-25.391,-6.348,-26.855,0.000,0
1596692433.388,-39.551,-28.809,-11.230,-42.969,0.000,0
1596692433.392,-32.715,-28.809,-18.066,-38.086,0.000,0
1596692433.396,-20.996,-27.832,-12.695,-22.461,0.000,0
1596692433.400,-18.555,-30.762,-11.230,-23.438,0.000,0
1596692433.404,-18.066,-27.832,-11.719,-38.086,0.000,0
1596692433.408,-16.113,-21.484,-6.348,-33.203,0.000,0
1596692433.412,-10.254,-27.832,-8.301,-11.230,0.000,0
1596692433.416,-20.020,-31.738,-14.648,-11.230,0.000,0
1596692433.420,-34.668,-27.344,-18.555,-41.504,0.000,0
1596692433.423,-33.691,-22.949,-17.578,-44.434,0.000,0
1596692433.427,-30.762,-20.020,-15.625,-28.809,0.000,0
1596692433.431,-23.926,-15.625,-16.113,-29.785,0.000,0
1596692433.435,-24.414,-12.695,-17.090,-35.645,0.000,0
1596692433.439,-35.645,-15.625,-20.996,-41.992,0.000,0
1596692433.443,-28.809,-17.090,-21.973,-38.086,0.000,0
1596692433.447,-17.578,-14.648,-17.578,-23.926,0.000,0
1596692433.451,-32.715,-18.066,-19.531,-35.645,0.000,0
1596692433.455,-43.945,-27.344,-23.438,-47.363,0.000,0
1596692433.459,-41.504,-33.691,-22.949,-38.574,0.000,0
1596692433.463,-35.156,-26.367,-20.996,-43.457,0.000,0
1596692433.466,-28.809,-20.996,-19.043,-44.922,0.000,0
1596692433.470,-30.762,-24.902,-20.020,-45.898,0.000,0
1596692433.474,-27.832,-25.391,-21.973,-43.457,0.000,0
1596692433.478,-25.879,-22.949,-21.973,-32.227,0.000,0
1596692433.482,-32.715,-23.926,-20.020,-29.785,0.000,0
1596692433.486,-29.785,-20.996,-15.625,-31.738,0.000,0
1596692433.490,-23.438,-20.020,-17.090,-40.039,0.000,0
1596692433.494,-19.531,-24.902,-16.113,-28.809,0.000,0
1596692433.498,-12.207,-21.973,-10.254,-13.184,0.000,0
1596692433.502,-19.531,-23.438,-14.648,-23.926,0.000,0
1596692433.506,-30.762,-28.320,-13.672,-31.738,0.000,0
1596692433.509,-24.414,-24.414,-9.766,-26.855,0.000,0
1596692433.513,-13.672,-29.297,-17.090,-23.926,0.000,0
1596692433.517,-18.066,-34.668,-17.090,-28.809,0.000,0
1596692433.521,-32.227,-27.832,-13.672,-40.039,0.000,0
1596692433.525,-32.715,-24.414,-16.113,-35.156,0.000,0
1596692433.529,-19.043,-25.879,-13.672,-20.020,0.000,0
1596692433.533,-19.043,-25.391,-8.301,-23.438,0.000,0
1596692433.537,-18.066,-25.391,-6.836,-29.785,0.000,0
1596692433.541,-20.996,-24.902,-6.836,-22.949,0.000,0
1596692433.545,-32.715,-25.879,-7.324,-13.672,0.000,0
1596692433.548,-31.250,-26.855,-8.301,-11.719,0.000,0
1596692433.552,-36.621,-25.879,-9.277,-36.133,0.000,0
1596692433.556,-41.016,-22.949,-13.672,-47.852,0.000,0
1596692433.560,-30.273,-21.484,-16.602,-29.297,0.000,0
1596692433.564,-28.320,-21.484,-11.230,-20.996,0.000,0
1596692433.568,-31.738,-18.066,-7.812,-27.832,0.000,0
1596692433.572,-29.297,-20.508,-10.254,-34.180,0.000,0
1596692433.576,-28.320,-20.996,-10.254,-23.438,0.000,0
1596692433.580,-23.926,-19.531,-5.859,-13.672,0.000,0
1596692433.584,-28.320,-25.879,-5.859,-20.996,0.000,0
1596692433.588,-35.645,-33.203,-5.371,-31.250,0.000,0
1596692433.591,-35.156,-31.738,-3.906,-20.020,0.000,0
1596692433.595,-28.809,-32.227,-6.348,-3.418,0.000,0
1596692433.599,-29.785,-31.250,-12.695,-17.578,0.000,0
1596692433.603,-33.691,-21.484,-8.301,-28.809,0.000,0
1596692433.607,-34.180,-13.184,-2.441,-24.414,0.000,0
1596692433.611,-27.344,-13.672,-4.883,-11.230,0.000,0
1596692433.615,-27.832,-11.719,-2.930,-9.277,0.000,0
1596692433.619,-25.391,-12.207,-4.395,-28.320,0.000,0
1596692433.623,-21.484,-18.555,-12.207,-34.668,0.000,0
1596692433.627,-33.691,-19.531,-13.672,-27.344,0.000,0
1596692433.631,-29.785,-16.113,-14.160,-20.996,0.000,0
1596692433.634,-20.508,-16.113,-15.137,-28.320,0.000,0
1596692433.638,-21.484,-16.602,-12.695,-32.715,0.000,0
1596692433.642,-16.602,-8.301,-15.625,-25.391,0.000,0
1596692433.646,-12.207,-3.418,-15.137,-17.090,0.000,0
1596692433.650,-16.113,-9.766,-16.602,-29.297,0.000,0
1596692433.654,-18.555,-11.230,-16.602,-36.133,0.000,0
1596692433.658,-17.578,-10.254,-14.160,-29.297,0.000,0
1596692433.662,-13.672,-9.766,-12.207,-24.414,0.000,0
1596692433.666,-16.113,-15.625,-14.160,-17.090,0.000,0
1596692433.670,-24.414,-23.438,-20.508,-24.414,0.000,0
1596692433.673,-27.832,-22.949,-18.066,-34.668,0.000,0
1596692433.677,-22.461,-14.648,-14.648,-23.438,0.000,0
1596692433.681,-9.277,-10.742,-11.719,-6.836,0.000,0
1596692433.685,-12.207,-9.766,-11.230,-21.973,0.000,0
1596692433.689,-19.531,-10.254,-13.184,-46.875,0.000,0
1596692433.693,-17.578,-8.789,-8.301,-32.227,0.000,0
1596692433.697,-22.461,-9.766,-7.812,-23.438,0.000,0
1596692433.701,-30.762,-13.672,-16.113,-32.715,0.000,0
1596692433.705,-33.203,-18.066,-19.043,-42.969,0.000,0
1596692433.709,-32.227,-22.461,-20.020,-43.945,0.000,0
1596692433.713,-31.250,-17.578,-20.020,-33.203,0.000,0
1596692433.716,-27.344,-13.184,-12.207,-32.715,0.000,0
1596692433.720,-31.738,-11.719,-6.348,-44.434,0.000,0
1596692433.724,-30.273,-14.160,-8.301,-42.480,0.000,0
1596692433.728,-15.625,-18.555,-9.277,-22.461,0.000,0
1596692433.732,-12.207,-9.766,-5.859,-16.602,0.000,0
1596692433.736,-24.414,-10.742,-10.742,-35.156,0.000,0
1596692433.740,-34.180,-23.926,-17.578,-45.898,0.000,0
1596692433.744,-22.461,-23.926,-18.066,-32.227,0.000,0
1596692433.748,-20.020,-17.578,-16.602,-21.973,0.000,0
1596692433.752,-28.809,-18.066,-15.137,-26.855,0.000,0
1596692433.756,-26.855,-20.508,-17.578,-34.668,0.000,0
1596692433.759,-18.555,-19.531,-20.508,-27.832,0.000,0
1596692433.763,-17.578,-20.996,-19.043,-19.043,0.000,0
1596692433.767,-23.926,-26.855,-21.484,-27.344,0.000,0
1596692433.771,-20.508,-30.273,-21.973,-38.574,0.000,0
1596692433.775,-13.672,-20.996,-19.531,-28.320,0.000,0
1596692433.779,-1.465,-16.113,-13.672,-8.301,0.000,0
1596692433.783,-13.672,-21.973,-12.695,-18.555,0.000,0
1596692433.787,-29.297,-30.273,-16.113,-29.297,0.000,0
1596692433.791,-35.156,-30.273,-12.695,-26.855,0.000,0
1596692433.795,-45.410,-31.738,-9.277,-29.297,0.000,0
1596692433.798,-39.062,-38.574,-2.930,-21.973,0.000,0
1596692433.802,-41.504,-39.551,-0.977,-31.250,0.000,0
1596692433.806,-45.898,-37.598,-2.930,-34.180,0.000,0
1596692433.810,-42.480,-34.668,-1.465,-32.227,0.000,0
1596692433.814,-37.598,-33.691,-2.930,-36.133,0.000,0
1596692433.818,-33.203,-30.273,-4.395,-40.039,0.000,0
1596692433.822,-38.086,-29.297,-7.812,-44.922,0.000,0
1596692433.826,-33.691,-31.250,-6.348,-28.809,0.000,0
1596692433.830,-33.203,-30.273,-7.324,-20.020,0.000,0
1596692433.834,-34.180,-34.180,-11.230,-18.555,0.000,0
1596692433.838,-37.598,-36.621,-8.301,-33.691,0.000,0
1596692433.841,-33.203,-30.273,-4.883,-30.273,0.000,0
1596692433.845,-20.996,-28.809,-6.348,-9.766,0.000,0
1596692433.849,-20.508,-28.320,-10.254,-23.438,0.000,0
1596692433.853,-28.809,-24.414,-9.277,-35.645,0.000,0
1596692433.857,-41.504,-26.367,-6.348,-35.645,0.000,0
1596692433.861,-36.621,-27.832,-3.418,-28.809,0.000,0
1596692433.865,-30.762,-25.391,-3.906,-26.855,0.000,0
1596692433.869,-32.227,-30.273,-6.348,-33.203,0.000,0
1596692433.873,-30.273,-34.180,-7.812,-33.203,0.000,0
1596692433.877,-23.926,-34.668,-4.883,-20.020,0.000,0
1596692433.881,-19.043,-39.551,-5.371,-6.348,0.000,0
1596692433.884,-21.973,-37.598,-9.766,-17.090,0.000,0
1596692433.888,-28.809,-33.691,-7.812,-23.438,0.000,0
1596692433.892,-29.297,-35.156,-6.348,-20.020,0.000,0
1596692433.896,-20.508,-33.691,-4.883,-11.719,0.000,0
1596692433.900,-18.555,-29.785,-2.441,-14.160,0.000,0
1596692433.904,-21.484,-30.273,-2.441,-16.113,0.000,0
1596692433.908,-19.531,-27.344,-5.371,-10.742,0.000,0
1596692433.912,-22.461,-31.250,-11.719,-18.555,0.000,0
1596692433.916,-17.090,-37.109,-12.695,-13.184,0.000,0
1596692433.920,-18.066,-33.203,-12.207,-23.438,0.000,0
1596692433.923,-32.227,-30.273,-6.836,-28.809,0.000,0
1596692433.927,-24.414,-27.832,-2.930,-16.113,0.000,0
1596692433.931,-11.230,-25.879,-4.395,-20.508,0.000,0
1596692433.935,-12.695,-24.414,-2.930,-28.320,0.000,0
1596692433.939,-26.855,-24.414,-3.418,-27.344,0.000,0
1596692433.943,-30.273,-28.809,-4.395,-25.391,0.000,0
1596692433.947,-18.555,-27.832,-6.836,-30.762,0.000,0
1596692433.951,-18.555,-24.902,-12.695,-30.273,0.000,0
1596692433.955,-22.949,-18.555,-11.719,-30.762,0.000,0
1596692433.959,-19.043,-18.555,-11.230,-30.273,0.000,0
1596692433.963,-12.207,-24.414,-18.555,-21.484,0.000,0
1596692433.966,-10.254,-19.531,-15.137,-16.602,0.000,0
1596692433.970,-22.461,-12.207,-8.301,-25.391,0.000,0
1596692433.974,-32.715,-12.207,-12.695,-31.738,0.000,0
1596692433.978,-27.344,-14.160,-12.207,-28.809,0.000,0
1596692433.982,-20.020,-18.555,-10.742,-28.809,0.000,0
1596692433.986,-25.391,-22.949,-13.184,-34.180,0.000,0
1596692433.990,-30.273,-19.043,-6.836,-32.715,0.000,0
1596692433.994,-19.043,-20.508,-8.301,-20.996,0.000,0
1596692433.998,-10.742,-23.926,-4.395,-6.348,0.000,0
1596692434.002,-14.160,-20.020,-0.977,-9.766,0.000,0
1596692434.006,-20.996,-18.555,-9.277,-21.484,0.000,0
1596692434.009,-17.090,-18.555,-7.324,-18.555,0.000,0
1596692434.013,-8.789,-22.461,-6.836,-10.254,0.000,0
1596692434.017,-17.578,-21.484,-7.324,-19.531,0.000,0
1596692434.021,-29.785,-20.020,-4.883,-31.738,0.000,0
1596692434.025,-30.273,-24.414,-3.418,-21.973,0.000,0
1596692434.029,-21.484,-20.996,-2.441,-7.324,0.000,0
1596692434.033,-17.090,-19.043,-7.324,-5.371,0.000,0
1596692434.037,-23.926,-22.949,-11.719,-21.973,0.000,0
1596692434.041,-20.996,-25.391,-13.184,-33.691,0.000,0
1596692434.045,-14.648,-22.461,-14.160,-23.438,0.000,0
1596692434.048,-17.578,-18.555,-13.672,-15.137,0.000,0
1596692434.052,-22.949,-21.973,-13.184,-29.297,0.000,0
1596692434.056,-23.438,-19.531,-10.742,-36.621,0.000,0
1596692434.060,-20.020,-17.090,-12.207,-23.438,0.000,0
1596692434.064,-20.508,-21.973,-16.602,-19.531,0.000,0
1596692434.068,-18.066,-20.020,-13.672,-28.809,0.000,0
1596692434.072,-21.484,-19.531,-14.648,-29.297,0.000,0
1596692434.076,-26.367,-21.484,-17.090,-20.020,0.000,0
1596692434.080,-23.926,-18.066,-19.043,-26.855,0.000,0
1596692434.084,-22.949,-21.484,-19.531,-33.203,0.000,0
1596692434.088,-22.949,-21.484,-20.020,-24.902,0.000,0
1596692434.091,-29.785,-20.996,-21.973,-27.344,0.000,0
1596692434.095,-23.926,-22.949,-18.555,-26.367,0.000,0
1596692434.099,-17.578,-20.020,-15.625,-8.789,0.000,0
1596692434.103,-20.508,-18.066,-13.672,-8.789,0.000,0
1596692434.107,-15.625,-13.672,-10.254,-13.184,0.000,0
1596692434.111,-9.277,-12.695,-9.277,-6.836,0.000,0
1596692434.115,-7.324,-13.672,-7.812,1.465,0.000,0
1596692434.119,-11.719,-16.113,-7.812,-10.254,0.000,0
1596692434.123,-18.066,-20.996,-6.348,-28.320,0.000,0
1596692434.127,-13.184,-17.578,-6.348,-20.020,0.000,0
1596692434.131,-8.789,-17.578,-5.859,-13.672,0.000,0
1596692434.134,-11.719,-21.484,-5.859,-20.020,0.000,0
1596692434.138,-20.996,-21.484,-8.789,-24.414,0.000,0
1596692434.142,-31.738,-25.879,-11.230,-26.367,0.000,0
1596692434.146,-24.414,-29.297,-11.719,-16.113,0.000,0
1596692434.150,-21.973,-25.879,-12.207,-20.508,0.000,0
1596692434.154,-28.320,-24.414,-14.160,-33.203,0.000,0
1596692434.158,-25.391,-26.367,-13.672,-29.297,0.000,0
1596692434.162,-14.160,-27.344,-15.137,-15.137,0.000,0
1596692434.166,-23.926,-25.391,-18.555,-18.066,0.000,0
1596692434.170,-39.551,-23.926,-17.090,-31.738,0.000,0
1596692434.173,-32.715,-23.438,-15.137,-30.273,0.000,0
1596692434.177,-24.902,-20.020,-11.230,-22.461,0.000,0
1596692434.181,-24.414,-22.461,-9.277,-27.832,0.000,0
1596692434.185,-30.762,-27.832,-8.301,-36.133,0.000,0
1596692434.189,-39.551,-29.297,-5.859,-39.062,0.000,0
1596692434.193,-38.574,-32.227,-7.324,-32.227,0.000,0
1596692434.197,-30.273,-33.691,-11.230,-19.043,0.000,0
1596692434.201,-30.762,-28.809,-12.695,-22.461,0.000,0
1596692434.205,-30.273,-26.855,-11.230,-32.715,0.000,0
1596692434.209,-21.973,-27.344,-10.742,-25.391,0.000,0
1596692434.213,-24.414,-21.484,-10.742,-17.090,0.000,0
1596692434.216,-30.762,-26.367,-11.230,-26.855,0.000,0
1596692434.220,-35.156,-33.203,-15.137,-42.969,0.000,0
1596692434.224,-32.715,-32.715,-15.137,-38.574,0.000,0
1596692434.228,-20.996,-29.297,-10.742,-20.996,0.000,0
1596692434.232,-16.602,-30.762,-8.789,-17.090,0.000,0
1596692434.236,-22.949,-41.504,-5.371,-14.648,0.000,0
1596692434.240,-15.625,-41.992,-3.906,-6.348,0.000,0
1596692434.244,-17.090,-28.809,-8.301,-18.555,0.000,0
1596692434.248,-31.738,-16.602,-18.555,-41.016,0.000,0
1596692434.252,-31.250,-17.090,-21.484,-46.875,0.000,0
1596692434.256,-25.391,-9.766,-16.602,-42.480,0.000,0
1596692434.259,-24.414,-2.441,-16.602,-44.434,0.000,0
1596692434.263,-17.090,-8.789,-20.508,-42.480,0.000,0
1596692434.267,-20.996,-16.602,-25.391,-41.504,0.000,0
1596692434.271,-25.391,-13.184,-24.902,-54.199,0.000,0
1596692434.275,-21.484,-9.766,-25.879,-58.594,0.000,0
1596692434.279,-21.973,-13.672,-30.762,-44.922,0.000,0
1596692434.283,-27.832,-20.020,-28.809,-43.945,0.000,0
1596692434.287,-33.203,-22.949,-24.902,-56.641,0.000,0
1596692434.291,-32.715,-18.066,-25.879,-55.176,0.000,0
1596692434.295,-19.531,-17.090,-29.785,-40.039,0.000,0
1596692434.298,-13.672,-22.461,-32.715,-34.180,0.000,0
1596692434.302,-20.996,-22.461,-34.180,-42.480,0.000,0
1596692434.306,-21.973,-18.066,-25.391,-43.457,0.000,0
1596692434.310,-13.184,-20.508,-21.484,-34.668,0.000,0
1596692434.314,-12.695,-22.461,-20.508,-28.809,0.000,0
1596692434.318,-14.160,-17.090,-19.043,-27.832,0.000,0
1596692434.322,-15.137,-19.531,-16.602,-30.762,0.000,0
1596692434.326,-20.020,-26.855,-13.184,-20.508,0.000,0
1596692434.330,-20.508,-31.738,-13.672,-20.996,0.000,0
1596692434.334,-23.438,-29.297,-10.254,-33.203,0.000,0
1596692434.338,-26.367,-26.855,-11.719,-40.039,0.000,0
1596692434.341,-27.344,-28.320,-20.020,-30.762,0.000,0
1596692434.345,-24.414,-25.879,-19.043,-16.113,0.000,0
1596692434.349,-26.855,-21.484,-20.508,-26.855,0.000,0
1596692434.353,-27.344,-21.973,-22.949,-40.039,0.000,0
1596692434.357,-22.461,-21.484,-20.508,-35.156,0.000,0
1596692434.361,-16.113,-16.113,-12.695,-19.531,0.000,0
1596692434.365,-17.090,-22.461,-10.254,-25.879,0.000,0
1596692434.369,-14.648,-24.902,-13.672,-30.762,0.000,0
1596692434.373,-10.742,-20.020,-10.254,-24.414,0.000,0
1596692434.377,-17.090,-19.531,-6.348,-18.555,0.000,0
1596692434.381,-19.043,-19.043,-8.789,-21.973,0.000,0
1596692434.384,-20.020,-21.973,-12.207,-32.715,0.000,0
1596692434.388,-25.879,-24.414,-15.625,-31.250,0.000,0
1596692434.392,-17.578,-16.602,-8.789,-23.438,0.000,0
1596692434.396,-9.277,-14.648,-4.395,-24.414,0.000,0
1596692434.400,-18.555,-18.555,-13.184,-25.391,0.000,0
1596692434.404,-24.902,-17.090,-14.648,-26.367,0.000,0
1596692434.408,-20.508,-17.578,-9.766,-26.367,0.000,0
1596692434.412,-20.020,-24.902,-12.207,-19.531,0.000,0
1596692434.416,-20.996,-27.832,-12.695,-21.973,0.000,0
1596692434.420,-18.555,-24.902,-5.371,-31.250,0.000,0
1596692434.423,-25.879,-24.902,-6.348,-36.133,0.000,0
1596692434.427,-36.133,-25.879,-10.742,-27.832,0.000,0
1596692434.431,-32.227,-30.762,-13.184,-21.484,0.000,0
1596692434.435,-30.273,-31.738,-15.137,-30.273,0.000,0
1596692434.439,-31.250,-26.367,-15.625,-39.062,0.000,0
1596692434.443,-25.879,-24.902,-13.672,-30.762,0.000,0
1596692434.447,-20.996,-26.367,-11.230,-21.484,0.000,0
1596692434.451,-21.484,-25.391,-16.113,-34.180,0.000,0
1596692434.455,-26.855,-22.949,-17.578,-45.410,0.000,0
1596692434.459,-22.461,-21.484,-13.184,-29.297,0.000,0
1596692434.463,-17.578,-19.043,-12.207,-15.137,0.000,0
1596692434.466,-21.973,-21.973,-14.648,-24.414,0.000,0
1596692434.470,-10.742,-21.973,-14.648,-31.250,0.000,0
1596692434.474,-5.859,-21.484,-10.254,-23.926,0.000,0
1596692434.478,-21.973,-23.926,-14.648,-20.996,0.000,0
1596692434.482,-25.391,-19.043,-22.461,-22.461,0.000,0
1596692434.486,-27.832,-15.137,-22.461,-34.180,0.000,0
1596692434.490,-28.320,-19.531,-22.461,-37.598,0.000,0
1596692434.494,-20.996,-22.949,-20.020,-27.344,0.000,0
1596692434.498,-16.602,-21.973,-16.602,-28.809,0.000,0
1596692434.502,-17.578,-17.090,-13.672,-34.668,0.000,0
1596692434.506,-25.879,-17.578,-13.184,-32.227,0.000,0
1596692434.509,-28.809,-26.367,-11.230,-28.809,0.000,0
1596692434.513,-28.320,-33.203,-11.719,-25.391,0.000,0
1596692434.517,-27.344,-27.832,-10.742,-27.344,0.000,0
1596692434.521,-27.832,-21.973,-11.230,-35.156,0.000,0
1596692434.525,-21.484,-22.461,-13.184,-22.461,0.000,0
1596692434.529,-15.137,-17.090,-5.859,-14.648,0.000,0
1596692434.533,-13.672,-6.348,-3.418,-26.855,0.000,0
1596692434.537,-13.184,-11.719,-5.859,-25.391,0.000,0
1596692434.541,-22.461,-19.531,-3.906,-22.461,0.000,0
1596692434.545,-22.949,-12.695,-0.977,-24.414,0.000,0
1596692434.548,-13.672,-19.531,-5.371,-15.137,0.000,0
1596692434.552,-15.625,-26.855,-2.441,-20.508,0.000,0
1596692434.556,-32.227,-35.645,-3.418,-33.203,0.000,0
1596692434.560,-34.668,-41.992,-9.766,-23.926,0.000,0
1596692434.564,-29.785,-35.156,-12.695,-17.578,0.000,0
1596692434.568,-35.156,-35.156,-15.137,-25.391,0.000,0
1596692434.572,-30.273,-34.180,-15.625,-29.297,0.000,0
1596692434.576,-22.461,-21.973,-11.230,-26.855,0.000,0
1596692434.580,-24.902,-19.531,-7.812,-19.043,0.000,0
1596692434.584,-26.855,-30.762,-11.230,-21.484,0.000,0
1596692434.588,-28.809,-23.438,-11.719,-31.250,0.000,0
1596692434.591,-26.367,-18.066,-12.695,-34.668,0.000,0
1596692434.595,-24.414,-28.320,-19.043,-31.250,0.000,0
1596692434.599,-27.344,-26.367,-18.066,-27.344,0.000,0
1596692434.603,-22.949,-19.531,-15.625,-29.297,0.000,0
1596692434.607,-20.996,-16.602,-14.648,-24.414,0.000,0
1596692434.611,-17.090,-20.020,-10.254,-20.996,0.000,0
1596692434.615,-8.789,-17.578,-4.883,-25.391,0.000,0
1596692434.619,-16.113,-14.648,-0.977,-30.762,0.000,0
1596692434.623,-22.461,-13.672,0.000,-28.809,0.000,0
1596692434.627,-16.113,-16.113,-3.906,-11.719,0.000,0
1596692434.631,-13.672,-20.020,-6.836,-8.789,0.000,0
1596692434.634,-22.461,-21.973,-6.836,-26.367,0.000,0
1596692434.638,-32.715,-22.461,-11.230,-34.180,0.000,0
1596692434.642,-38.086,-22.949,-16.602,-31.250,0.000,0
1596692434.646,-32.715,-21.484,-18.066,-21.484,0.000,0
1596692434.650,-32.715,-16.602,-20.020,-20.996,0.000,0
1596692434.654,-32.715,-15.137,-22.461,-28.320,0.000,0
1596692434.658,-28.320,-14.160,-21.484,-26.855,0.000,0
1596692434.662,-21.484,-14.160,-14.160,-19.531,0.000,0
1596692434.666,-15.137,-13.672,-11.719,-11.230,0.000,0
1596692434.670,-18.066,-14.160,-11.719,-24.414,0.000,0
1596692434.673,-18.555,-14.648,-8.301,-28.809,0.000,0
1596692434.677,-14.160,-11.719,-8.789,-20.996,0.000,0
1596692434.681,-14.648,-8.789,-7.812,-20.020,0.000,0
1596692434.685,-22.461,-10.742,-7.324,-21.973,0.000,0
1596692434.689,-28.809,-21.973,-9.277,-30.273,0.000,0
1596692434.693,-25.391,-21.484,-6.836,-22.461,0.000,0
1596692434.697,-15.137,-19.531,-3.906,-13.184,0.000,0
1596692434.701,-18.066,-23.438,-10.742,-21.484,0.000,0
1596692434.705,-30.762,-25.391,-17.090,-33.203,0.000,0
1596692434.709,-23.438,-26.855,-12.695,-30.762,0.000,0
1596692434.713,-13.672,-30.762,-12.207,-23.926,0.000,0
1596692434.716,-26.367,-33.203,-16.602,-22.949,0.000,0
1596692434.720,-32.715,-23.438,-14.160,-22.949,0.000,0
1596692434.724,-30.762,-17.090,-10.742,-29.785,0.000,0
1596692434.728,-35.645,-23.438,-13.184,-31.738,0.000,0
1596692434.732,-31.250,-19.531,-13.184,-27.344,0.000,0
1596692434.736,-28.809,-15.137,-9.766,-30.762,0.000,0
1596692434.740,-28.809,-17.578,-8.301,-26.855,0.000,0
1596692434.744,-23.926,-20.508,-8.789,-16.113,0.000,0
1596692434.748,-19.531,-20.020,-9.277,-19.043,0.000,0
1596692434.752,-23.438,-17.578,-7.324,-28.809,0.000,0
1596692434.756,-26.367,-18.555,-9.277,-39.551,0.000,0
1596692434.759,-17.090,-19.531,-12.207,-37.109,0.000,0
1596692434.763,-19.043,-20.020,-16.113,-23.438,0.000,0
1596692434.767,-32.227,-18.066,-17.578,-34.668,0.000,0
1596692434.771,-36.133,-19.531,-15.137,-46.387,0.000,0
1596692434.775,-29.785,-23.926,-15.137,-42.480,0.000,0
1596692434.779,-20.508,-17.090,-14.160,-32.227,0.000,0
1596692434.783,-25.391,-14.648,-13.184,-28.320,0.000,0
1596692434.787,-33.203,-18.066,-12.207,-39.551,0.000,0
1596692434.791,-14.648,-16.602,-18.066,-32.227,0.000,0
1596692434.795,-3.418,-17.090,-13.184,-12.207,0.000,0
1596692434.798,-26.855,-22.461,-6.348,-24.902,0.000,0
1596692434.802,-39.062,-24.414,-6.836,-45.410,0.000,0
1596692434.806,-40.527,-22.949,-3.906,-38.086,0.000,0
1596692434.810,-57.129,-22.949,0.977,-40.527,0.000,0
1596692434.814,-60.059,-22.461,0.488,-54.199,0.000,0
1596692434.818,-57.617,-22.461,-4.395,-63.477,0.000,0
1596692434.822,-64.941,-25.879,-7.324,-72.266,0.000,0
1596692434.826,-65.918,-25.391,-6.836,-55.664,0.000,0
1596692434.830,-53.223,-18.066,-2.930,-50.293,0.000,0
1596692434.834,-49.316,-22.949,-6.836,-60.059,0.000,0
1596692434.838,-47.852,-25.391,-13.672,-57.129,0.000,0
1596692434.841,-42.480,-21.973,-11.719,-52.734,0.000,0
1596692434.845,-36.133,-20.996,-8.301,-41.016,0.000,0
1596692434.849,-38.574,-22.461,-9.766,-40.527,0.000,0
1596692434.853,-48.340,-22.461,-14.648,-50.293,0.000,0
1596692434.857,-46.875,-21.484,-14.160,-45.898,0.000,0
1596692434.861,-40.039,-25.391,-10.742,-39.062,0.000,0
1596692434.865,-40.039,-23.926,-17.090,-39.062,0.000,0
1596692434.869,-37.109,-20.508,-16.602,-36.621,0.000,0
1596692434.873,-35.645,-16.113,-4.883,-42.480,0.000,0
1596692434.877,-30.273,-16.602,0.000,-34.668,0.000,0
1596692434.881,-28.320,-24.414,-8.789,-27.344,0.000,0
1596692434.884,-34.180,-25.879,-14.648,-34.668,0.000,0
1596692434.888,-31.738,-26.855,-14.160,-42.969,0.000,0
1596692434.892,-26.367,-28.320,-19.531,-30.273,0.000,0
1596692434.896,-26.367,-28.320,-18.555,-25.391,0.000,0
1596692434.900,-27.832,-26.367,-16.602,-40.039,0.000,0
1596692434.904,-27.344,-21.973,-11.719,-39.062,0.000,0
1596692434.908,-25.879,-19.043,-9.766,-29.297,0.000,0
1596692434.912,-21.484,-26.855,-14.160,-14.648,0.000,0
1596692434.916,-15.137,-27.832,-14.160,-15.625,0.000,0
1596692434.920,-16.113,-16.113,-9.766,-28.809,0.000,0
1596692434.923,-17.578,-18.066,-7.324,-22.461,0.000,0
1596692434.927,-15.137,-22.461,-10.254,-16.113,0.000,0
1596692434.931,-17.090,-21.973,-12.207,-25.391,0.000,0
1596692434.935,-21.973,-22.949,-7.324,-35.156,0.000,0
1596692434.939,-23.438,-23.926,-6.348,-39.551,0.000,0
1596692434.943,-24.414,-24.414,-10.742,-33.203,0.000,0
1596692434.947,-23.438,-19.531,-9.277,-26.855,0.000,0
1596692434.951,-23.438,-18.066,-9.766,-36.621,0.000,0
1596692434.955,-19.043,-22.461,-14.648,-41.016,0.000,0
1596692434.959,-12.207,-25.391,-13.184,-22.949,0.000,0
1596692434.963,-13.184,-19.531,-8.301,-16.602,0.000,0
1596692434.966,-13.672,-16.602,-4.883,-27.344,0.000,0
1596692434.970,-18.555,-22.461,-7.324,-32.715,0.000,0
1596692434.974,-10.254,-23.926,-13.184,-30.762,0.000,0
1596692434.978,-3.906,-20.508,-8.789,-23.438,0.000,0
1596692434.982,-17.578,-19.531,-2.930,-24.902,0.000,0
1596692434.986,-22.461,-20.020,-7.812,-31.250,0.000,0
1596692434.990,-20.996,-20.020,-7.324,-23.926,0.000,0
1596692434.994,-19.043,-22.949,-7.812,-15.137,0.000,0
1596692434.998,-13.184,-21.484,-5.859,-13.184,0.000,0
1596692435.002,-16.113,-21.484,-4.395,-20.508,0.000,0
1596692435.006,-21.484,-23.926,-9.766,-31.738,0.000,0
1596692435.009,-23.438,-20.508,-6.836,-30.762,0.000,0
1596692435.013,-19.043,-20.996,-0.488,-18.066,0.000,0
1596692435.017,-21.484,-22.949,-2.930,-21.484,0.000,0
1596692435.021,-30.762,-25.879,-4.395,-34.180,0.000,0
1596692435.025,-28.320,-22.949,2.441,-26.855,0.000,0
1596692435.029,-19.043,-21.484,2.441,-10.742,0.000,0
1596692435.033,-22.461,-22.461,0.488,-15.625,0.000,0
1596692435.037,-31.738,-20.020,-2.441,-30.273,0.000,0
1596692435.041,-21.484,-21.973,-4.883,-21.973,0.000,0
1596692435.045,-11.230,-21.484,-0.488,-11.230,0.000,0
1596692435.048,-16.113,-23.926,-0.977,-12.207,0.000,0
1596692435.052,-18.555,-21.973,-0.977,-20.020,0.000,0
1596692435.056,-17.578,-14.160,-1.953,-27.344,0.000,0
1596692435.060,-19.531,-15.625,-5.371,-27.832,0.000,0
1596692435.064,-22.949,-21.484,-4.883,-24.902,0.000,0
1596692435.068,-24.902,-22.461,-3.418,-29.297,0.000,0
1596692435.072,-20.508,-22.949,-3.418,-33.203,0.000,0
1596692435.076,-22.461,-22.949,-7.324,-26.855,0.000,0
1596692435.080,-26.855,-25.879,-13.184,-24.902,0.000,0
1596692435.084,-25.879,-29.297,-14.160,-33.203,0.000,0
1596692435.088,-25.391,-32.715,-12.695,-37.598,0.000,0
1596692435.091,-18.066,-28.320,-9.766,-21.484,0.000,0
1596692435.095,-15.137,-23.926,-8.301,-6.836,0.000,0
1596692435.099,-18.555,-17.090,-2.441,-21.973,0.000,0
1596692435.103,-24.414,-14.648,1.953,-30.762,0.000,0
1596692435.107,-23.926,-22.949,-2.930,-25.879,0.000,0
1596692435.111,-15.625,-24.414,-3.906,-20.508,0.000,0
1596692435.115,-9.277,-20.996,1.465,-14.160,0.000,0
1596692435.119,-15.625,-20.996,3.418,-21.973,0.000,0
1596692435.123,-19.531,-19.043,-0.488,-33.203,0.000,0
1596692435.127,-13.184,-19.531,0.000,-20.996,0.000,0
1596692435.131,-12.695,-20.996,-1.953,-14.648,0.000,0
1596692435.134,-18.066,-23.926,-9.277,-26.855,0.000,0
1596692435.138,-30.273,-35.645,-12.207,-28.320,0.000,0
1596692435.142,-29.297,-31.250,-8.301,-19.531,0.000,0
1596692435.146,-19.531,-26.855,-5.859,-17.578,0.000,0
1596692435.150,-25.879,-34.668,-6.836,-26.367,0.000,0
1596692435.154,-37.598,-35.645,-1.465,-34.668,0.000,0
1596692435.158,-29.297,-28.809,2.930,-24.414,0.000,0
1596692435.162,-20.020,-22.949,1.953,-20.020,0.000,0
1596692435.166,-21.973,-25.879,0.488,-27.344,0.000,0
1596692435.170,-22.461,-22.949,-1.465,-25.879,0.000,0
1596692435.173,-19.043,-15.625,-0.977,-12.695,0.000,0
1596692435.177,-17.578,-18.066,-3.906,-16.113,0.000,0
1596692435.181,-8.789,-19.531,-6.348,-20.508,0.000,0
1596692435.185,-16.113,-23.926,-3.906,-25.879,0.000,0
1596692435.189,-32.227,-18.555,-1.953,-37.109,0.000,0
1596692435.193,-30.273,-17.090,-5.859,-30.762,0.000,0
1596692435.197,-28.320,-22.949,-14.648,-22.461,0.000,0
1596692435.201,-29.785,-20.020,-15.137,-26.367,0.000,0
1596692435.205,-33.691,-22.949,-14.648,-35.156,0.000,0
1596692435.209,-31.250,-28.320,-15.137,-29.785,0.000,0
1596692435.213,-23.926,-22.949,-7.812,-16.602,0.000,0
1596692435.216,-28.809,-22.949,-5.859,-17.090,0.000,0
1596692435.220,-32.715,-24.902,-7.324,-30.762,0.000,0
1596692435.224,-35.645,-25.391,-11.719,-31.738,0.000,0
1596692435.228,-32.715,-28.809,-12.207,-24.414,0.000,0
1596692435.232,-30.273,-29.297,-7.324,-35.156,0.000,0
1596692435.236,-34.180,-23.438,-5.859,-44.434,0.000,0
1596692435.240,-30.273,-23.926,-2.441,-34.668,0.000,0
1596692435.244,-20.996,-19.531,-0.488,-24.902,0.000,0
1596692435.248,-17.090,-10.742,-2.930,-27.344,0.000,0
1596692435.252,-18.555,-8.789,-4.395,-38.574,0.000,0
1596692435.256,-27.344,-13.672,-5.371,-36.133,0.000,0
1596692435.259,-30.273,-18.066,-8.301,-23.926,0.000,0
1596692435.263,-24.902,-17.578,-10.254,-18.066,0.000,0
1596692435.267,-21.973,-16.113,-8.789,-16.602,0.000,0
1596692435.271,-18.555,-21.973,-6.836,-26.367,0.000,0
1596692435.275,-16.113,-26.367,-5.371,-21.973,0.000,0
1596692435.279,-11.230,-17.578,-4.883,-8.789,0.000,0
1596692435.283,-16.602,-13.672,-5.371,-27.832,0.000,0
1596692435.287,-26.855,-19.531,-7.812,-32.715,0.000,0
1596692435.291,-21.973,-20.508,-8.789,-20.020,0.000,0
1596692435.295,-22.461,-15.137,-0.488,-13.184,0.000,0
1596692435.298,-24.902,-16.113,-2.441,-7.324,0.000,0
1596692435.302,-21.484,-19.043,-12.207,-15.137,0.000,0
1596692435.306,-30.273,-18.555,-15.137,-23.438,0.000,0
1596692435.310,-34.180,-23.926,-16.602,-21.484,0.000,0
1596692435.314,-23.926,-27.832,-18.066,-18.066,0.000,0
1596692435.318,-26.367,-24.902,-16.113,-28.809,0.000,0
1596692435.322,-41.504,-30.273,-16.113,-35.645,0.000,0
1596692435.326,-41.504,-25.879,-12.695,-38.086,0.000,0
1596692435.330,-38.086,-19.043,-9.766,-35.156,0.000,0
1596692435.334,-42.969,-31.250,-21.484,-31.738,0.000,0
1596692435.338,-46.875,-26.367,-22.949,-42.480,0.000,0
1596692435.341,-39.062,-17.090,-17.090,-41.504,0.000,2
1596692435.345,-32.715,-24.902,-18.555,-25.391,0.000,0
1596692435.349,-33.691,-28.320,-16.602,-16.113,0.000,0
1596692435.353,-28.320,-20.020,-11.719,-18.555,0.000,0
1596692435.357,-27.344,-21.484,-12.207,-23.438,0.000,0
1596692435.361,-31.250,-26.855,-11.719,-22.461,0.000,0
1596692435.365,-31.738,-26.855,-7.812,-24.902,0.000,0
1596692435.369,-35.645,-28.320,-7.812,-31.738,0.000,0
1596692435.373,-37.598,-28.320,-12.207,-35.156,0.000,0
1596692435.377,-20.020,-23.926,-14.160,-26.367,0.000,0
1596692435.381,-12.207,-18.555,-10.742,-13.672,0.000,0
1596692435.384,-20.020,-14.648,-2.441,-22.461,0.000,0
1596692435.388,-28.320,-14.160,-3.418,-29.785,0.000,0
1596692435.392,-29.297,-15.137,-8.301,-19.043,0.000,0
1596692435.396,-24.902,-22.949,-7.812,-17.090,0.000,0
1596692435.400,-28.809,-20.020,-12.695,-35.645,0.000,0
1596692435.404,-26.367,-20.996,-11.230,-38.574,0.000,0
1596692435.408,-20.996,-29.785,-11.719,-29.297,0.000,0
1596692435.412,-20.508,-26.855,-15.137,-22.949,0.000,0
1596692435.416,-20.508,-24.902,-12.207,-18.555,0.000,0
1596692435.420,-20.996,-23.438,-8.301,-19.531,0.000,0
1596692435.423,-23.926,-24.414,-3.906,-12.207,0.000,0
1596692435.427,-23.438,-27.344,-3.906,-5.371,0.000,0
1596692435.431,-20.020,-22.461,-8.789,-11.230,0.000,0
1596692435.435,-25.391,-19.043,-10.254,-21.484,0.000,0
1596692435.439,-34.180,-23.926,-14.648,-36.133,0.000,0
1596692435.443,-38.574,-27.344,-18.066,-32.227,0.000,0
1596692435.447,-30.273,-25.391,-14.648,-20.996,0.000,0
1596692435.451,-31.738,-27.344,-14.160,-31.250,0.000,0
1596692435.455,-35.645,-23.438,-18.066,-46.875,0.000,0
1596692435.459,-35.156,-21.484,-23.926,-44.922,0.000,0
1596692435.463,-40.039,-24.902,-26.855,-34.180,0.000,0
1596692435.466,-32.227,-28.320,-19.531,-27.344,0.000,0
1596692435.470,-27.344,-27.344,-16.113,-28.320,0.000,0
1596692435.474,-29.785,-19.043,-13.672,-40.039,0.000,0
1596692435.478,-22.461,-24.902,-12.695,-30.762,0.000,0
1596692435.482,-19.043,-28.320,-12.207,-19.531,0.000,0
1596692435.486,-20.996,-24.414,-12.207,-30.762,0.000,0
1596692435.490,-20.508,-24.902,-15.137,-30.273,0.000,0
1596692435.494,-22.461,-26.367,-10.254,-22.949,0.000,0
1596692435.498,-22.949,-23.926,-6.348,-27.344,0.000,0
1596692435.502,-23.926,-17.578,-7.812,-29.297,0.000,0
1596692435.506,-25.879,-20.996,-11.719,-36.621,0.000,0
1596692435.509,-17.090,-19.531,-13.672,-35.645,0.000,0
1596692435.513,-17.090,-18.555,-13.672,-16.602,0.000,0
1596692435.517,-27.832,-14.160,-8.301,-20.508,0.000,0
1596692435.521,-29.297,-7.812,-6.348,-33.203,0.000,0
1596692435.525,-26.367,-11.719,-9.277,-30.273,0.000,0
1596692435.529,-23.926,-17.090,-6.836,-27.344,0.000,0
1596692435.533,-23.926,-16.113,-2.930,-29.785,0.000,0
1596692435.537,-33.691,-12.695,-1.465,-36.133,0.000,0
1596692435.541,-27.832,-14.648,-2.930,-24.902,0.000,0
1596692435.545,-16.602,-18.555,-6.348,-12.695,0.000,0
1596692435.548,-22.461,-18.066,-2.441,-17.578,0.000,0
1596692435.552,-24.902,-10.254,-0.488,-24.414,0.000,0
1596692435.556,-18.066,-12.207,-5.371,-19.043,0.000,0
1596692435.560,-6.348,-21.973,-3.418,5.371,0.000,0
1596692435.564,-3.418,-22.949,-1.465,8.301,0.000,0
1596692435.568,-25.879,-19.043,-4.883,-29.785,0.000,0
1596692435.572,-29.785,-18.555,-9.766,-40.527,0.000,0
1596692435.576,-6.836,-17.090,-9.277,-13.184,0.000,0
1596692435.580,1.465,-12.207,-9.277,-2.441,0.000,0
1596692435.584,-7.812,-14.648,-12.207,-11.719,0.000,0
1596692435.588,-7.324,-16.113,-13.184,-23.438,0.000,0
1596692435.591,0.977,-19.531,-14.160,-19.531,0.000,0
1596692435.595,-0.488,-20.020,-13.672,-7.324,0.000,0
1596692435.599,-9.277,-18.066,-12.207,-3.906,0.000,0
1596692435.603,-11.230,-23.438,-9.277,-11.230,0.000,0
1596692435.607,-9.277,-22.949,-6.348,-11.230,0.000,0
1596692435.611,-5.371,-19.531,-6.836,-7.812,0.000,0
1596692435.615,-3.906,-26.367,-13.672,-4.883,0.000,0
1596692435.619,-7.812,-32.715,-18.066,-20.020,0.000,0
1596692435.623,-8.789,-31.250,-15.625,-34.668,0.000,0
1596692435.627,-7.812,-22.949,-12.207,-16.113,0.000,0
1596692435.631,-8.301,-25.391,-10.742,-10.254,0.000,0
1596692435.634,-15.625,-33.691,-7.812,-18.555,0.000,0
1596692435.638,-22.949,-32.715,-9.766,-26.855,0.000,0
1596692435.642,-16.113,-30.273,-16.602,-23.926,0.000,0
1596692435.646,-11.719,-33.691,-13.672,-19.531,0.000,0
1596692435.650,-18.066,-37.109,-12.695,-30.762,0.000,0
1596692435.654,-19.043,-31.738,-15.625,-29.297,0.000,0
1596692435.658,-8.301,-21.973,-13.672,-24.902,0.000,0
1596692435.662,-7.324,-28.320,-11.719,-16.602,0.000,0
1596692435.666,-17.090,-33.691,-11.230,-13.672,0.000,0
1596692435.670,-29.297,-30.273,-11.230,-36.621,0.000,0
1596692435.673,-35.645,-35.645,-14.160,-38.574,0.000,0
1596692435.677,-28.809,-36.133,-21.973,-33.691,0.000,0
1596692435.681,-24.902,-32.715,-21.973,-32.715,0.000,0
1596692435.685,-24.414,-32.227,-16.113,-29.785,0.000,0
1596692435.689,-18.555,-30.762,-17.090,-31.250,0.000,0
1596692435.693,-17.090,-28.809,-13.672,-20.020,0.000,0
1596692435.697,-21.484,-26.855,-15.137,-14.160,0.000,0
1596692435.701,-25.879,-22.949,-13.672,-23.438,0.000,0
1596692435.705,-27.832,-19.531,-4.883,-33.691,0.000,0
1596692435.709,-23.926,-23.926,-3.418,-24.902,0.000,0
1596692435.713,-22.461,-24.414,-2.441,-14.648,0.000,0
1596692435.716,-28.809,-20.996,-7.812,-26.855,0.000,0
1596692435.720,-32.227,-23.438,-8.789,-33.691,0.000,0
1596692435.724,-36.133,-26.367,-5.371,-32.715,0.000,0
1596692435.728,-29.785,-27.344,-8.789,-31.250,0.000,0
1596692435.732,-14.160,-25.391,-11.230,-31.250,0.000,0
1596692435.736,-17.578,-27.832,-9.277,-30.273,0.000,0
1596692435.740,-38.086,-36.621,-1.953,-31.738,0.000,0
1596692435.744,-44.922,-38.574,0.977,-30.762,0.000,0
1596692435.748,-36.621,-31.738,5.371,-26.855,0.000,0
1596692435.752,-38.574,-36.133,5.859,-29.297,0.000,0
1596692435.756,-44.922,-47.363,3.418,-31.738,0.000,0
1596692435.759,-43.457,-44.922,7.324,-24.414,0.000,0
1596692435.763,-34.180,-39.062,11.230,-14.160,0.000,0
1596692435.767,-41.016,-41.504,10.254,-31.250,0.000,0
1596692435.771,-47.363,-43.945,8.789,-35.156,0.000,0
1596692435.775,-39.551,-42.969,2.930,-20.020,0.000,0
1596692435.779,-25.391,-36.133,1.465,-14.648,0.000,0
1596692435.783,-22.461,-27.832,3.906,-20.508,0.000,0
1596692435.787,-30.762,-29.785,7.324,-24.902,0.000,0
1596692435.791,-31.250,-37.109,0.977,-30.273,0.000,0
1596692435.795,-25.391,-41.016,-5.859,-30.273,0.000,0
1596692435.798,-16.602,-41.016,-1.465,-16.602,0.000,0
1596692435.802,-28.320,-35.645,0.000,-27.832,0.000,0
1596692435.806,-45.898,-31.250,-3.418,-44.922,0.000,0
1596692435.810,-36.133,-32.227,-3.418,-38.574,0.000,0
1596692435.814,-29.297,-31.738,-2.441,-35.156,0.000,0
1596692435.818,-29.297,-32.227,1.465,-40.039,0.000,0
1596692435.822,-32.227,-31.250,4.395,-41.504,0.000,0
1596692435.826,-32.715,-32.715,0.000,-29.785,0.000,0
1596692435.830,-23.438,-38.086,-4.395,-16.113,0.000,0
1596692435.834,-24.414,-33.691,-4.883,-21.484,0.000,0
1596692435.838,-31.738,-29.785,-3.418,-25.391,0.000,0
1596692435.841,-34.180,-36.133,-9.766,-20.508,0.000,0
1596692435.845,-26.855,-35.645,-14.648,-21.973,0.000,0
1596692435.849,-25.391,-31.250,-10.742,-22.949,0.000,0
1596692435.853,-24.902,-30.762,-7.812,-26.855,0.000,0
1596692435.857,-14.648,-24.902,-6.836,-35.156,0.000,0
1596692435.861,-13.184,-27.344,-11.719,-28.320,0.000,0
1596692435.865,-27.344,-30.273,-13.184,-19.043,0.000,0
1596692435.869,-35.156,-27.832,-15.137,-31.738,0.000,0
1596692435.873,-27.344,-24.902,-11.719,-37.598,0.000,0
1596692435.877,-13.184,-23.926,-5.859,-21.484,0.000,0
1596692435.881,-10.742,-24.414,-9.277,-15.137,0.000,0
1596692435.884,-21.973,-28.809,-12.207,-31.738,0.000,0
1596692435.888,-24.414,-32.715,-15.137,-31.738,0.000,0
1596692435.892,-20.508,-27.344,-9.277,-22.461,0.000,0
1596692435.896,-19.531,-22.461,-7.324,-20.020,0.000,0
1596692435.900,-21.484,-21.973,-12.207,-27.344,0.000,0
1596692435.904,-25.391,-23.926,-12.207,-41.016,0.000,0
1596692435.908,-26.367,-20.508,-8.789,-37.109,0.000,0
1596692435.912,-24.902,-17.578,-5.859,-21.973,0.000,0
1596692435.916,-19.043,-21.484,-7.812,-20.020,0.000,0
1596692435.920,-16.602,-21.973,-11.719,-37.109,0.000,0
1596692435.923,-19.531,-26.855,-16.113,-43.457,0.000,0
1596692435.927,-19.043,-27.344,-17.090,-25.391,0.000,0
1596692435.931,-21.484,-29.785,-16.602,-13.184,0.000,0
1596692435.935,-30.762,-29.297,-16.602,-29.785,0.000,0
1596692435.939,-27.832,-15.625,-12.207,-30.273,0.000,0
1596692435.943,-13.672,-11.230,-9.766,-8.789,0.000,0
1596692435.947,-15.137,-24.414,-15.137,-17.090,0.000,0
1596692435.951,-29.785,-32.227,-16.602,-41.016,0.000,0
1596692435.955,-34.668,-28.809,-16.602,-43.457,0.000,0
1596692435.959,-32.227,-26.367,-21.973,-34.180,0.000,0
1596692435.963,-22.461,-25.391,-21.484,-21.484,0.000,0
1596692435.966,-15.137,-22.949,-14.648,-22.461,0.000,0
1596692435.970,-19.531,-26.855,-15.137,-34.668,0.000,0
1596692435.974,-20.020,-29.297,-18.066,-29.297,0.000,0
1596692435.978,-7.812,-29.297,-13.184,-15.137,0.000,0
1596692435.982,-9.766,-36.133,-14.160,-19.531,0.000,0
1596692435.986,-27.344,-34.180,-15.137,-27.344,0.000,0
1596692435.990,-32.227,-29.297,-12.695,-22.461,0.000,0
1596692435.994,-30.762,-29.785,-19.531,-20.020,0.000,0
1596692435.998,-30.762,-29.785,-20.508,-29.297,0.000,0
1596692436.002,-26.367,-24.414,-14.160,-36.621,0.000,0
1596692436.006,-24.902,-26.367,-9.766,-35.156,0.000,0
1596692436.009,-22.461,-29.297,-15.137,-28.320,0.000,0
1596692436.013,-13.184,-24.414,-18.066,-25.391,0.000,0
1596692436.017,-17.578,-27.344,-15.137,-31.738,0.000,0
1596692436.021,-25.879,-33.691,-18.555,-36.621,0.000,0
1596692436.025,-25.391,-36.621,-21.973,-32.715,0.000,0
1596692436.029,-19.531,-34.668,-25.879,-34.180,0.000,0
1596692436.033,-11.719,-27.344,-22.461,-27.344,0.000,0
1596692436.037,-22.949,-28.320,-21.973,-29.297,0.000,0
1596692436.041,-37.598,-30.273,-21.484,-39.551,0.000,0
1596692436.045,-29.785,-23.926,-15.137,-27.344,0.000,0
1596692436.048,-20.508,-20.508,-15.625,-21.484,0.000,0
1596692436.052,-26.367,-20.508,-20.020,-33.691,0.000,0
1596692436.056,-31.738,-25.879,-20.508,-40.527,0.000,0
1596692436.060,-28.809,-30.762,-22.949,-38.086,0.000,0
1596692436.064,-27.344,-30.762,-20.996,-23.438,0.000,0
1596692436.068,-29.297,-32.715,-12.695,-20.020,0.000,0
1596692436.072,-34.180,-35.156,-12.207,-29.297,0.000,0
1596692436.076,-33.203,-32.715,-13.672,-22.461,0.000,0
1596692436.080,-26.855,-37.598,-10.254,-13.184,0.000,0
1596692436.084,-20.996,-40.039,-6.836,-14.160,0.000,0
1596692436.088,-31.738,-25.879,-7.812,-23.438,0.000,0
1596692436.091,-39.551,-19.531,-16.602,-28.320,0.000,0
1596692436.095,-25.879,-20.508,-19.531,-25.879,0.000,0
1596692436.099,-20.020,-18.066,-13.672,-27.344,0.000,0
1596692436.103,-35.156,-17.578,-12.695,-32.715,0.000,0
1596692436.107,-41.016,-24.414,-11.719,-30.762,0.000,0
1596692436.111,-31.250,-29.297,-10.742,-16.602,0.000,0
1596692436.115,-23.438,-23.926,-13.672,-7.812,0.000,0
1596692436.119,-22.949,-25.391,-12.207,-17.578,0.000,0
1596692436.123,-23.926,-23.438,-14.648,-21.973,0.000,0
1596692436.127,-13.672,-19.043,-15.137,-14.648,0.000,0
1596692436.131,-10.254,-17.578,-11.719,-12.695,0.000,0
1596692436.134,-17.578,-20.996,-11.719,-20.508,0.000,0
1596692436.138,-21.484,-21.484,-10.254,-35.156,0.000,0
1596692436.142,-19.531,-20.020,-17.090,-23.926,0.000,0
1596692436.146,-16.113,-20.996,-16.113,-16.113,0.000,0
1596692436.150,-11.719,-11.230,-6.348,-35.645,0.000,0
1596692436.154,-16.113,-7.324,-9.766,-35.645,0.000,0
1596692436.158,-20.996,-14.160,-11.230,-23.438,0.000,0
1596692436.162,-12.695,-20.996,-12.695,-22.949,0.000,0
1596692436.166,-11.230,-20.996,-16.113,-29.297,0.000,0
1596692436.170,-19.043,-21.973,-12.695,-30.762,0.000,0
1596692436.173,-21.484,-21.484,-11.719,-25.391,0.000,0
1596692436.177,-15.137,-15.625,-8.301,-21.484,0.000,0
1596692436.181,-11.230,-14.160,-4.395,-18.066,0.000,0
1596692436.185,-19.531,-18.066,-8.789,-30.762,0.000,0
1596692436.189,-20.996,-16.113,-7.324,-36.621,0.000,0
1596692436.193,-17.578,-12.207,-3.418,-20.996,0.000,0
1596692436.197,-15.625,-16.113,-9.766,-20.508,0.000,0
1596692436.201,-22.461,-24.902,-15.625,-35.645,0.000,0
1596692436.205,-26.855,-25.879,-12.207,-34.668,0.000,0
1596692436.209,-21.973,-22.461,-9.766,-25.879,0.000,0
1596692436.213,-12.207,-19.043,-13.184,-16.113,0.000,0
1596692436.216,-10.742,-21.484,-13.184,-16.602,0.000,0
1596692436.220,-17.578,-23.926,-9.766,-27.832,0.000,0
1596692436.224,-16.113,-20.996,-9.277,-35.156,0.000,0
1596692436.228,-14.648,-21.484,-13.672,-23.438,0.000,0
1596692436.232,-22.949,-22.461,-13.184,-24.902,0.000,0
1596692436.236,-30.273,-24.902,-18.066,-39.551,0.000,0
1596692436.240,-29.297,-28.809,-21.973,-40.527,0.000,0
1596692436.244,-16.113,-25.879,-14.648,-22.949,0.000,0
1596692436.248,-9.277,-23.926,-15.137,-17.090,0.000,0
1596692436.252,-10.742,-24.902,-14.160,-29.297,0.000,0
1596692436.256,-13.672,-22.949,-11.719,-27.832,0.000,0
1596692436.259,-20.020,-23.926,-12.207,-17.090,0.000,0
1596692436.263,-15.625,-26.855,-16.113,-11.230,0.000,0
1596692436.267,-16.602,-23.438,-15.625,-20.996,0.000,0
1596692436.271,-30.762,-24.414,-16.602,-33.691,0.000,0
1596692436.275,-27.832,-28.320,-21.973,-23.438,0.000,0
1596692436.279,-12.207,-21.484,-20.996,-8.301,0.000,0
1596692436.283,-14.160,-21.973,-18.555,-17.090,0.000,0
1596692436.287,-21.484,-24.902,-16.602,-29.297,0.000,0
1596692436.291,-10.254,-22.461,-11.719,-20.996,0.000,0
1596692436.295,-13.184,-24.414,-15.137,-19.043,0.000,0
1596692436.298,-27.832,-27.832,-20.508,-27.344,0.000,0
1596692436.302,-27.832,-27.832,-13.672,-31.738,0.000,0
1596692436.306,-20.996,-29.785,-16.113,-29.785,0.000,0
1596692436.310,-7.812,-29.297,-21.973,-18.555,0.000,0
1596692436.314,-12.207,-24.414,-17.578,-21.973,0.000,0
1596692436.318,-26.367,-26.855,-20.996,-27.832,0.000,0
1596692436.322,-24.414,-29.297,-28.320,-27.832,0.000,0
1596692436.326,-14.160,-25.879,-20.996,-17.578,0.000,0
1596692436.330,-9.766,-20.020,-14.160,-11.230,0.000,0
1596692436.334,-10.742,-19.531,-14.648,-20.020,0.000,0
1596692436.338,-11.719,-23.438,-15.137,-18.555,0.000,0
1596692436.341,-12.207,-22.949,-15.137,-11.230,0.000,0
1596692436.345,-3.906,-28.809,-13.184,0.977,0.000,0
1596692436.349,14.160,-35.156,-14.160,13.672,0.000,0
1596692436.353,-2.930,-24.902,-18.555,-7.324,0.000,0
1596692436.357,-28.320,-16.602,-20.996,-29.785,0.000,0
1596692436.361,-30.273,-18.066,-19.531,-33.691,0.000,0
1596692436.365,-31.250,-14.648,-19.531,-36.621,0.000,0
1596692436.369,-36.133,-15.137,-22.461,-48.340,0.000,0
1596692436.373,-49.805,-12.695,-24.414,-64.941,0.000,0
1596692436.377,-50.781,-6.348,-26.367,-62.012,0.000,0
1596692436.381,-40.527,-6.348,-26.367,-56.641,0.000,0
1596692436.384,-40.527,-2.930,-20.020,-60.547,0.000,0
1596692436.388,-50.293,-2.930,-16.113,-71.777,0.000,0
1596692436.392,-51.270,-6.836,-13.184,-61.035,0.000,0
1596692436.396,-42.480,-9.766,-13.184,-35.645,0.000,0
1596692436.400,-41.992,-13.672,-18.555,-40.527,0.000,0
1596692436.404,-45.898,-14.160,-17.578,-54.688,0.000,0
1596692436.408,-42.480,-11.230,-16.113,-39.551,0.000,0
1596692436.412,-33.203,-14.648,-20.996,-26.855,0.000,0
1596692436.416,-33.691,-15.137,-25.879,-42.480,0.000,0
1596692436.420,-37.109,-10.742,-27.344,-56.641,0.000,0
1596692436.423,-33.203,-18.555,-29.785,-53.223,0.000,0
1596692436.427,-35.156,-25.879,-28.809,-36.621,0.000,0
1596692436.431,-38.574,-18.555,-21.484,-29.297,0.000,0
1596692436.435,-41.016,-19.043,-17.578,-42.480,0.000,0
1596692436.439,-36.621,-25.391,-22.949,-47.363,0.000,0
1596692436.443,-32.715,-29.297,-27.832,-43.457,0.000,0
1596692436.447,-30.762,-30.762,-23.926,-39.551,0.000,0
1596692436.451,-33.203,-28.809,-19.531,-41.016,0.000,0
1596692436.455,-35.645,-23.926,-22.949,-41.504,0.000,0
1596692436.459,-25.879,-25.391,-19.043,-28.320,0.000,0
1596692436.463,-30.762,-30.273,-14.160,-21.484,0.000,0
1596692436.466,-38.574,-31.250,-15.137,-41.504,0.000,0
1596692436.470,-35.645,-32.227,-14.160,-51.270,0.000,0
1596692436.474,-30.762,-29.785,-10.254,-36.133,0.000,0
1596692436.478,-24.414,-22.461,-9.766,-33.203,0.000,0
1596692436.482,-19.531,-21.484,-7.812,-30.762,0.000,0
1596692436.486,-14.648,-20.508,-5.371,-33.203,0.000,0
1596692436.490,-19.531,-18.555,-11.719,-32.227,0.000,0
1596692436.494,-24.902,-20.996,-9.766,-17.578,0.000,0
1596692436.498,-24.902,-19.531,-7.812,-22.949,0.000,0
1596692436.502,-26.855,-21.484,-10.742,-30.273,0.000,0
1596692436.506,-34.180,-25.879,-14.648,-29.297,0.000,0
1596692436.509,-26.367,-20.508,-14.648,-33.203,0.000,0
1596692436.513,-22.461,-20.020,-14.160,-27.832,0.000,0
1596692436.517,-30.762,-25.879,-19.043,-29.297,0.000,0
1596692436.521,-34.180,-27.344,-21.973,-45.410,0.000,0
1596692436.525,-29.297,-24.414,-18.555,-37.109,0.000,0
1596692436.529,-28.809,-26.367,-18.555,-24.902,0.000,0
1596692436.533,-36.133,-29.785,-23.438,-34.180,0.000,0
1596692436.537,-35.645,-24.414,-21.484,-44.434,0.000,0
1596692436.541,-28.320,-22.949,-18.066,-34.180,0.000,0
1596692436.545,-22.461,-27.344,-17.090,-28.809,0.000,0
1596692436.548,-28.809,-34.180,-21.973,-35.645,0.000,0
1596692436.552,-39.062,-28.320,-21.484,-44.434,0.000,0
1596692436.556,-37.109,-14.648,-16.113,-45.898,0.000,0
1596692436.560,-31.250,-14.648,-15.625,-29.297,0.000,0
1596692436.564,-28.320,-23.926,-17.578,-26.367,0.000,0
1596692436.568,-29.785,-25.879,-18.555,-37.109,0.000,0
1596692436.572,-29.785,-23.438,-15.625,-32.227,0.000,0
1596692436.576,-20.996,-26.855,-14.648,-23.926,0.000,0
1596692436.580,-19.043,-28.320,-18.066,-25.879,0.000,0
1596692436.584,-28.320,-23.438,-18.066,-31.250,0.000,0
1596692436.588,-33.691,-21.973,-17.578,-36.621,0.000,0
1596692436.591,-29.785,-23.926,-16.113,-30.273,0.000,0
1596692436.595,-25.879,-27.832,-12.207,-19.043,0.000,0
1596692436.599,-28.809,-21.973,-8.301,-19.043,0.000,0
1596692436.603,-24.414,-17.578,-5.371,-21.973,0.000,0
1596692436.607,-20.020,-22.949,-1.465,-23.926,0.000,0
1596692436.611,-18.555,-22.949,0.977,-21.973,0.000,0
1596692436.615,-17.090,-19.043,3.906,-22.461,0.000,0
1596692436.619,-16.602,-14.648,5.371,-21.484,0.000,0
1596692436.623,-13.184,-13.184,1.465,-17.090,0.000,0
1596692436.627,-6.836,-12.207,0.488,-8.301,0.000,0
1596692436.631,-8.301,-12.207,5.859,-3.418,0.000,0
1596692436.634,-14.160,-18.555,6.836,-16.113,0.000,0
1596692436.638,-21.484,-21.484,3.418,-19.531,0.000,0
1596692436.642,-16.113,-16.602,6.836,-12.207,0.000,0
1596692436.646,-1.465,-13.672,8.301,-2.441,0.000,0
1596692436.650,-7.812,-15.137,0.488,-11.230,0.000,0
1596692436.654,-17.090,-21.973,-4.395,-28.809,0.000,0
1596692436.658,-15.625,-20.996,-1.953,-29.297,0.000,0
1596692436.662,-8.301,-12.695,0.977,-20.020,0.000,0
1596692436.666,-5.859,-18.555,-3.418,-18.555,0.000,0
1596692436.670,-16.113,-19.043,-4.883,-25.391,0.000,0
1596692436.673,-19.531,-15.137,0.000,-24.902,0.000,0
1596692436.677,-11.230,-15.625,0.977,-9.277,0.000,0
1596692436.681,-12.695,-21.973,-2.930,-6.348,0.000,0
1596692436.685,-16.113,-20.996,-0.977,-20.996,0.000,0
1596692436.689,-14.648,-14.648,5.859,-26.367,0.000,0
1596692436.693,-20.508,-20.020,5.371,-17.578,0.000,0
1596692436.697,-26.367,-25.391,0.000,-17.090,0.000,0
1596692436.701,-28.809,-26.367,-5.859,-32.715,0.000,0
1596692436.705,-25.879,-26.855,-9.766,-32.227,0.000,0
1596692436.709,-25.879,-30.762,-15.137,-20.020,0.000,0
1596692436.713,-20.996,-31.250,-17.578,-16.602,0.000,0
1596692436.716,-19.043,-31.250,-18.066,-20.020,0.000,0
1596692436.720,-27.344,-28.320,-16.602,-30.273,0.000,0
1596692436.724,-27.344,-25.391,-15.625,-35.645,0.000,0
1596692436.728,-26.855,-27.832,-21.973,-25.391,0.000,0
1596692436.732,-25.879,-28.809,-27.344,-29.785,0.000,0
1596692436.736,-32.227,-27.344,-24.414,-39.551,0.000,0
1596692436.740,-40.039,-26.367,-20.508,-41.016,0.000,0
1596692436.744,-32.227,-23.438,-22.461,-35.156,0.000,0
1596692436.748,-29.297,-15.625,-23.926,-33.203,0.000,0
1596692436.752,-26.367,-15.625,-19.043,-42.969,0.000,0
1596692436.756,-23.926,-15.625,-11.719,-38.086,0.000,0
1596692436.759,-27.344,-14.648,-14.160,-24.414,0.000,0
1596692436.763,-26.367,-20.508,-13.184,-17.090,0.000,0
1596692436.767,-24.902,-23.926,-12.695,-32.227,0.000,0
1596692436.771,-25.879,-20.508,-18.066,-42.969,0.000,0
1596692436.775,-24.414,-22.949,-20.020,-38.574,0.000,0
1596692436.779,-24.902,-24.902,-20.508,-37.598,0.000,0
1596692436.783,-22.949,-21.484,-20.996,-38.574,0.000,0
1596692436.787,-23.926,-27.344,-26.367,-34.668,0.000,0
1596692436.791,-15.625,-23.926,-22.461,-26.367,0.000,0
1596692436.795,-7.812,-18.555,-17.578,-19.531,0.000,0
1596692436.798,-12.695,-20.020,-13.184,-14.648,0.000,0
1596692436.802,-16.113,-16.113,-8.789,-31.738,0.000,0
1596692436.806,-16.113,-15.625,-11.230,-41.016,0.000,0
1596692436.810,-9.766,-23.926,-8.301,-24.414,0.000,0
1596692436.814,-0.488,-20.508,-8.301,-21.973,0.000,0
1596692436.818,-13.672,-16.602,-13.672,-35.156,0.000,0
1596692436.822,-23.438,-20.020,-14.648,-28.320,0.000,0
1596692436.826,-13.672,-19.043,-6.836,-13.184,0.000,0
1596692436.830,-16.113,-20.508,-8.301,-16.113,0.000,0
1596692436.834,-24.902,-24.414,-19.531,-37.598,0.000,0
1596692436.838,-31.250,-22.949,-15.137,-45.410,0.000,0
1596692436.841,-28.809,-18.555,-9.766,-38.574,0.000,0
1596692436.845,-26.367,-25.879,-20.020,-31.738,0.000,0
1596692436.849,-30.762,-30.762,-28.809,-35.645,0.000,0
1596692436.853,-40.039,-23.926,-30.762,-52.734,0.000,0
1596692436.857,-35.645,-20.996,-32.227,-45.410,0.000,0
1596692436.861,-30.273,-27.832,-34.668,-41.016,0.000,0
1596692436.865,-28.320,-29.785,-35.156,-50.293,0.000,0
1596692436.869,-28.320,-29.297,-28.809,-52.246,0.000,0
1596692436.873,-30.762,-25.879,-20.996,-43.945,0.000,0
1596692436.877,-27.344,-29.785,-19.531,-22.461,0.000,0
1596692436.881,-20.020,-30.762,-13.184,-16.602,0.000,0
1596692436.884,-13.672,-28.320,-10.742,-33.691,0.000,0
1596692436.888,-15.137,-31.250,-18.066,-37.109,0.000,0
1596692436.892,-28.320,-30.273,-22.461,-25.391,0.000,0
1596692436.896,-26.855,-24.414,-19.531,-13.184,0.000,0
1596692436.900,-26.367,-21.484,-20.996,-17.578,0.000,0
1596692436.904,-40.039,-24.902,-24.414,-32.715,0.000,0
1596692436.908,-33.203,-21.973,-18.555,-25.879,0.000,0
1596692436.912,-19.531,-19.043,-14.648,-17.578,0.000,0
1596692436.916,-19.043,-18.555,-15.625,-16.602,0.000,0
1596692436.920,-26.855,-19.531,-16.113,-22.949,0.000,0
1596692436.923,-24.414,-22.949,-17.578,-18.555,0.000,0
1596692436.927,-11.719,-20.996,-14.648,-2.930,0.000,0
1596692436.931,-9.277,-19.043,-7.812,-11.719,0.000,0
1596692436.935,-19.531,-25.879,-8.789,-23.926,0.000,0
1596692436.939,-13.672,-23.926,-7.812,-20.508,0.000,0
1596692436.943,0.000,-13.672,-6.836,-12.695,0.000,0
1596692436.947,-10.742,-17.090,-11.719,-15.137,0.000,0
1596692436.951,-23.926,-25.879,-10.254,-19.043,0.000,0
1596692436.955,-23.926,-29.297,-11.719,-20.508,0.000,0
1596692436.959,-26.367,-30.273,-13.184,-19.531,0.000,0
1596692436.963,-19.043,-28.320,-3.906,-14.160,0.000,0
1596692436.966,-10.254,-30.762,0.488,-8.301,0.000,0
1596692436.970,-19.043,-27.832,-2.441,-12.207,0.000,0
1596692436.974,-16.602,-16.602,0.977,-14.648,0.000,0
1596692436.978,-11.230,-10.742,4.395,-5.859,0.000,0
1596692436.982,-21.973,-15.137,4.883,-11.230,0.000,0
1596692436.986,-31.738,-27.344,-2.441,-33.691,0.000,0
1596692436.990,-29.785,-27.344,-2.930,-30.273,0.000,0
1596692436.994,-26.367,-27.344,0.000,-22.949,0.000,0
1596692436.998,-29.785,-30.762,0.000,-28.809,0.000,0
1596692437.002,-23.926,-28.320,9.277,-30.762,0.000,0
1596692437.006,-23.926,-29.785,10.254,-31.738,0.000,0
1596692437.009,-19.043,-26.855,4.883,-19.043,0.000,0
1596692437.013,-22.949,-25.879,1.465,-14.160,0.000,0
1596692437.017,-34.180,-25.391,0.977,-34.180,0.000,0
1596692437.021,-31.250,-20.508,1.465,-47.363,0.000,0
1596692437.025,-24.414,-19.043,-0.488,-32.715,0.000,0
1596692437.029,-18.066,-13.672,-0.977,-21.973,0.000,0
1596692437.033,-17.578,-11.719,3.906,-32.227,0.000,0
1596692437.037,-17.090,-16.602,3.906,-28.320,0.000,0
1596692437.041,-12.207,-17.090,0.488,-19.043,0.000,0
1596692437.045,-4.883,-16.113,0.000,-21.484,0.000,0
1596692437.048,-3.418,-15.625,0.000,-22.949,0.000,0
1596692437.052,-14.648,-17.090,0.977,-27.832,0.000,0
1596692437.056,-22.461,-18.555,-1.465,-24.414,0.000,0
1596692437.060,-22.949,-17.578,-4.395,-21.973,0.000,0
1596692437.064,-27.344,-18.555,-6.348,-34.180,0.000,0
1596692437.068,-32.227,-20.508,-5.859,-43.945,0.000,0
1596692437.072,-27.832,-21.484,-5.371,-37.598,0.000,0
1596692437.076,-13.184,-20.508,-1.953,-22.949,0.000,0
1596692437.080,-18.066,-15.625,0.000,-21.484,0.000,0
1596692437.084,-31.250,-20.508,-6.836,-30.762,0.000,0
1596692437.088,-31.250,-19.531,-6.836,-25.391,0.000,0
1596692437.091,-22.949,-18.555,-0.488,-13.184,0.000,0
1596692437.095,-23.926,-25.879,-2.441,-12.695,0.000,0
1596692437.099,-25.391,-25.879,-6.348,-20.996,0.000,0
1596692437.103,-30.273,-25.391,-6.836,-29.297,0.000,0
1596692437.107,-45.410,-29.297,-6.348,-30.273,0.000,0
1596692437.111,-34.180,-28.809,-1.465,-30.762,0.000,0
1596692437.115,-20.508,-32.227,-5.859,-30.273,0.000,0
1596692437.119,-19.531,-30.273,-7.324,-32.715,0.000,0
1596692437.123,-20.996,-21.484,5.371,-35.156,0.000,0
1596692437.127,-10.742,-19.531,11.719,-18.555,0.000,0
1596692437.131,-8.789,-24.902,5.371,-13.184,0.000,0
1596692437.134,-16.113,-28.320,-2.441,-28.320,0.000,0
1596692437.138,-27.832,-26.367,-4.395,-34.668,0.000,0
1596692437.142,-36.621,-24.414,2.930,-28.320,0.000,0
1596692437.146,-25.879,-26.855,12.695,-20.508,0.000,0
1596692437.150,-20.996,-30.762,17.090,-20.020,0.000,0
1596692437.154,-27.344,-26.855,15.625,-31.250,0.000,0
1596692437.158,-25.879,-22.949,5.859,-40.039,0.000,0
1596692437.162,-26.367,-28.809,-6.836,-31.738,0.000,0
1596692437.166,-29.297,-30.762,-1.465,-23.926,0.000,0
1596692437.170,-24.414,-18.555,4.395,-36.133,0.000,0
1596692437.173,-24.414,-15.625,0.977,-34.668,0.000,0
1596692437.177,-24.414,-23.926,0.488,-25.879,0.000,0
1596692437.181,-23.438,-28.320,-0.977,-30.273,0.000,0
1596692437.185,-25.391,-26.367,-0.977,-41.016,0.000,0
1596692437.189,-19.531,-23.926,1.953,-40.527,0.000,0
1596692437.193,-7.324,-25.391,3.418,-22.949,0.000,0
1596692437.197,-5.859,-28.320,0.488,-20.020,0.000,0
1596692437.201,-12.207,-27.344,1.953,-32.715,0.000,0
1596692437.205,-12.207,-25.879,2.441,-38.086,0.000,0
1596692437.209,-5.859,-34.668,0.977,-27.832,0.000,0
1596692437.213,-14.648,-34.668,2.441,-26.855,0.000,0
1596692437.216,-24.902,-27.344,6.348,-35.156,0.000,0
1596692437.220,-28.320,-26.367,4.395,-44.434,0.000,0
1596692437.224,-33.691,-27.344,2.930,-41.992,0.000,0
1596692437.228,-29.785,-29.297,1.953,-23.926,0.000,0
1596692437.232,-26.855,-26.855,0.488,-33.203,0.000,0
1596692437.236,-26.367,-25.391,-1.953,-45.410,0.000,0
1596692437.240,-23.438,-28.320,-12.207,-29.297,0.000,0
1596692437.244,-10.742,-30.273,-12.695,-6.836,0.000,0
1596692437.248,-11.719,-29.297,-5.859,-11.230,0.000,0
1596692437.252,-25.391,-29.297,-9.766,-25.879,0.000,0
1596692437.256,-21.484,-30.273,-5.859,-21.973,0.000,0
1596692437.259,-17.090,-31.250,-2.930,-14.160,0.000,0
1596692437.263,-15.137,-30.762,-5.859,-7.324,0.000,0
1596692437.267,-17.090,-26.855,-8.301,-17.090,0.000,0
1596692437.271,-9.277,-22.949,-10.742,-16.602,0.000,0
1596692437.275,-2.930,-22.949,-11.230,-3.418,0.000,0
1596692437.279,5.371,-26.367,-11.230,9.277,0.000,0
1596692437.283,6.348,-26.855,-13.672,8.789,0.000,0
1596692437.287,-4.883,-27.344,-13.672,0.488,0.000,0
1596692437.291,-1.953,-30.762,-9.766,1.953,0.000,0
1596692437.295,-0.977,-32.227,-5.859,6.836,0.000,0
1596692437.298,-3.418,-29.785,-5.371,8.789,0.000,0
1596692437.302,-5.371,-29.785,-9.277,-9.277,0.000,0
1596692437.306,-10.254,-26.855,-9.766,-24.902,0.000,0
1596692437.310,-8.789,-21.973,-10.254,-12.695,0.000,0
1596692437.314,-5.859,-20.508,-9.766,-1.953,0.000,0
1596692437.318,-8.301,-20.508,-4.883,-15.625,0.000,0
1596692437.322,-14.648,-20.508,-6.836,-32.227,0.000,0
1596692437.326,-11.719,-22.949,-9.277,-21.973,0.000,0
1596692437.330,-5.371,-22.461,-10.742,-20.508,0.000,0
1596692437.334,-16.602,-20.996,-11.719,-25.879,0.000,0
1596692437.338,-22.461,-19.531,-8.301,-24.902,0.000,0
1596692437.341,-14.160,-23.438,-8.301,-18.066,0.000,0
1596692437.345,-5.859,-28.809,-13.184,-7.324,0.000,0
1596692437.349,-3.906,-23.438,-12.695,-15.625,0.000,0
1596692437.353,-12.207,-23.926,-12.207,-21.484,0.000,0
1596692437.357,-18.066,-23.926,-9.766,-12.207,0.000,0
1596692437.361,-16.113,-20.020,-4.883,-0.488,0.000,0
1596692437.365,-15.137,-12.695,-1.465,-2.930,0.000,0
1596692437.369,-13.672,-11.719,-0.977,-13.672,0.000,0
1596692437.373,-8.301,-16.602,-1.953,-10.254,0.000,0
1596692437.377,-0.977,-14.648,1.953,-4.395,0.000,0
1596692437.381,2.441,-16.113,0.488,-1.953,0.000,0
1596692437.384,-1.953,-23.438,-5.371,-9.766,0.000,0
1596692437.388,-6.836,-26.855,-8.789,-11.230,0.000,0
1596692437.392,-10.254,-28.809,-9.277,-6.836,0.000,0
1596692437.396,-8.789,-27.344,-6.348,-7.812,0.000,0
1596692437.400,-9.766,-22.461,-6.348,-10.742,0.000,0
1596692437.404,-18.555,-22.461,-9.277,-21.484,0.000,0
1596692437.408,-16.602,-20.020,-8.301,-19.043,0.000,0
1596692437.412,-11.719,-16.113,-7.812,-20.020,0.000,0
1596692437.416,-16.602,-23.926,-11.719,-29.297,0.000,0
1596692437.420,-19.531,-28.320,-12.695,-30.273,0.000,0
1596692437.423,-8.301,-27.832,-7.324,-26.855,0.000,0
1596692437.427,-6.348,-29.785,-4.395,-20.020,0.000,0
1596692437.431,-15.625,-37.109,-4.883,-10.254,0.000,0
1596692437.435,-20.996,-36.133,-8.789,-19.531,0.000,0
1596692437.439,-26.855,-28.809,-12.695,-28.320,0.000,0
1596692437.443,-18.066,-27.832,-4.883,-10.254,0.000,0
1596692437.447,-11.230,-26.855,0.977,-4.395,0.000,0
1596692437.451,-20.996,-29.785,-2.441,-18.555,0.000,0
1596692437.455,-27.832,-33.691,-6.348,-22.461,0.000,0
1596692437.459,-16.602,-28.809,-2.930,-8.301,0.000,0
1596692437.463,-11.230,-22.461,-1.465,-6.836,0.000,0
1596692437.466,-25.391,-21.973,-2.930,-17.578,0.000,0
1596692437.470,-28.809,-24.902,-5.371,-28.320,0.000,0
1596692437.474,-27.832,-25.879,-20.996,-32.715,0.000,0
1596692437.478,-32.227,-30.762,-28.809,-23.926,0.000,0
1596692437.482,-26.367,-31.738,-18.066,-23.438,0.000,0
1596692437.486,-20.996,-25.391,-13.672,-22.949,0.000,0
1596692437.490,-24.414,-34.180,-15.625,-23.926,0.000,0
1596692437.494,-26.367,-33.691,-12.695,-19.531,0.000,0
1596692437.498,-18.066,-20.020,-8.301,-17.578,0.000,0
1596692437.502,-21.484,-18.066,-6.836,-34.668,0.000,0
1596692437.506,-29.297,-20.508,-8.789,-35.156,0.000,0
1596692437.509,-32.227,-21.973,-16.602,-29.785,0.000,0
1596692437.513,-35.156,-19.043,-19.531,-27.344,0.000,0
1596692437.517,-31.738,-15.137,-7.812,-22.461,0.000,0
1596692437.521,-30.762,-18.555,-6.836,-27.832,0.000,0
1596692437.525,-25.879,-22.949,-10.254,-20.020,0.000,0
1596692437.529,-23.438,-20.020,-7.812,-15.137,0.000,0
1596692437.533,-29.297,-21.484,-4.883,-27.344,0.000,0
1596692437.537,-32.715,-26.855,-2.441,-22.949,0.000,0
1596692437.541,-39.551,-27.344,-7.324,-23.438,0.000,0
1596692437.545,-40.527,-20.020,-9.766,-26.855,0.000,0
1596692437.548,-36.133,-19.531,-11.230,-22.461,0.000,0
1596692437.552,-38.086,-28.809,-10.254,-35.645,0.000,0
1596692437.556,-36.133,-27.344,-9.277,-41.504,0.000,0
1596692437.560,-28.320,-22.949,-7.812,-24.902,0.000,0
1596692437.564,-26.855,-27.832,-11.230,-23.438,0.000,0
1596692437.568,-26.855,-29.785,-9.766,-29.297,0.000,0
1596692437.572,-28.320,-29.785,-1.953,-23.438,0.000,0
1596692437.576,-26.855,-24.902,-1.465,-18.555,0.000,0
1596692437.580,-16.113,-16.602,-9.277,-21.973,0.000,0
1596692437.584,-25.879,-24.414,-12.695,-20.020,0.000,0
1596692437.588,-37.598,-27.832,-10.742,-28.320,0.000,0
1596692437.591,-31.738,-13.184,-10.742,-33.203,0.000,0
1596692437.595,-28.320,-14.648,-12.695,-19.531,0.000,0
1596692437.599,-24.414,-20.020,-10.742,-19.531,0.000,0
1596692437.603,-26.367,-20.996,-12.695,-25.879,0.000,0
1596692437.607,-30.762,-27.344,-19.531,-33.691,0.000,0
1596692437.611,-33.203,-27.344,-17.090,-30.273,0.000,0
1596692437.615,-32.227,-27.344,-16.602,-20.020,0.000,0
1596692437.619,-35.156,-29.785,-18.066,-30.273,0.000,0
1596692437.623,-37.598,-26.367,-16.113,-38.086,0.000,0
1596692437.627,-28.320,-26.367,-13.672,-16.602,0.000,0
1596692437.631,-26.855,-27.344,-15.137,-11.230,0.000,0
1596692437.634,-30.762,-20.020,-13.672,-31.738,0.000,0
1596692437.638,-26.367,-22.949,-11.230,-31.738,0.000,0
1596692437.642,-19.531,-24.414,-12.207,-11.230,0.000,0
1596692437.646,-13.672,-18.066,-14.160,-10.254,0.000,0
1596692437.650,-22.949,-18.555,-12.207,-29.297,0.000,0
1596692437.654,-34.180,-22.949,-11.230,-37.109,0.000,0
1596692437.658,-25.879,-16.113,-8.789,-28.809,0.000,0
1596692437.662,-21.973,-12.207,-8.789,-26.855,0.000,0
1596692437.666,-25.391,-17.090,-11.719,-35.645,0.000,0
1596692437.670,-27.344,-17.090,-12.207,-32.227,0.000,0
1596692437.673,-22.949,-21.484,-13.672,-21.484,0.000,0
1596692437.677,-17.090,-24.414,-8.789,-12.207,0.000,0
1596692437.681,-19.531,-17.090,-0.977,-18.066,0.000,0
1596692437.685,-25.879,-18.066,-0.488,-25.879,0.000,0
1596692437.689,-27.832,-28.320,-0.977,-29.785,0.000,0
1596692437.693,-18.555,-30.273,-0.488,-30.762,0.000,0
1596692437.697,-21.973,-27.832,-5.371,-30.762,0.000,0
1596692437.701,-33.691,-28.809,-11.230,-39.062,0.000,0
1596692437.705,-32.715,-28.320,-12.207,-38.086,0.000,0
1596692437.709,-21.484,-27.832,-13.184,-26.855,0.000,0
1596692437.713,-18.555,-29.785,-15.137,-23.438,0.000,0
1596692437.716,-24.414,-35.645,-17.578,-18.555,0.000,0
1596692437.720,-24.414,-35.645,-19.043,-24.902,0.000,0
1596692437.724,-18.555,-28.320,-16.113,-40.039,0.000,0
1596692437.728,-20.996,-30.273,-13.672,-29.785,0.000,0
1596692437.732,-31.738,-31.738,-11.719,-30.273,0.000,0
1596692437.736,-43.457,-28.320,-16.113,-48.340,0.000,0
1596692437.740,-48.340,-29.297,-21.484,-44.434,0.000,0
1596692437.744,-43.945,-34.668,-20.508,-33.203,0.000,0
1596692437.748,-30.762,-34.180,-14.648,-35.156,0.000,0
1596692437.752,-35.156,-30.273,-12.695,-39.062,0.000,0
1596692437.756,-45.898,-34.668,-21.973,-38.574,0.000,0
1596692437.759,-27.832,-35.156,-23.438,-20.996,0.000,0
1596692437.763,-19.043,-33.691,-19.531,-7.812,0.000,0
1596692437.767,-27.832,-28.320,-15.625,-15.625,0.000,0
1596692437.771,-30.273,-24.902,-16.113,-34.668,0.000,0
1596692437.775,-30.762,-34.668,-22.949,-42.480,0.000,0
1596692437.779,-33.691,-36.621,-23.438,-36.133,0.000,0
1596692437.783,-35.156,-32.227,-21.484,-39.062,0.000,0
1596692437.787,-37.109,-34.180,-22.461,-48.340,0.000,0
1596692437.791,-34.668,-40.527,-22.461,-43.945,0.000,0
1596692437.795,-20.508,-31.250,-23.926,-31.250,0.000,0
1596692437.798,-15.137,-21.973,-16.602,-26.855,0.000,0
1596692437.802,-29.297,-31.738,-14.648,-38.574,0.000,0
1596692437.806,-30.762,-32.715,-16.602,-33.691,0.000,0
1596692437.810,-20.508,-33.203,-13.672,-23.438,0.000,0
1596692437.814,-21.484,-32.715,-15.625,-29.297,0.000,0
1596692437.818,-30.273,-28.320,-16.113,-38.574,0.000,0
1596692437.822,-31.250,-33.203,-13.672,-40.527,0.000,0
1596692437.826,-27.344,-32.227,-13.672,-26.367,0.000,0
1596692437.830,-27.344,-25.391,-11.719,-26.367,0.000,0
1596692437.834,-29.785,-23.926,-14.648,-35.156,0.000,0
1596692437.838,-25.391,-28.320,-19.043,-34.668,0.000,0
1596692437.841,-23.438,-33.691,-18.555,-27.832,0.000,0
1596692437.845,-22.949,-30.762,-19.043,-28.320,0.000,0
1596692437.849,-22.461,-23.926,-21.484,-34.668,0.000,0
1596692437.853,-30.273,-31.738,-21.973,-41.016,0.000,0
1596692437.857,-24.902,-33.691,-15.625,-35.156,0.000,0
1596692437.861,-20.020,-25.391,-8.301,-24.414,0.000,0
1596692437.865,-25.391,-26.855,-7.324,-18.555,0.000,0
1596692437.869,-32.715,-34.668,-11.230,-31.738,0.000,0
1596692437.873,-41.504,-38.086,-10.742,-41.504,0.000,0
1596692437.877,-32.227,-30.762,-2.441,-31.250,0.000,0
1596692437.881,-23.438,-28.320,-2.930,-32.715,0.000,0
1596692437.884,-27.344,-28.320,-4.883,-39.062,0.000,0
1596692437.888,-24.902,-24.414,-2.441,-41.016,0.000,0
1596692437.892,-19.043,-24.902,-2.930,-28.320,0.000,0
1596692437.896,-20.020,-26.367,-4.883,-20.996,0.000,0
1596692437.900,-20.996,-29.297,-3.906,-28.809,0.000,0
1596692437.904,-20.508,-27.832,-7.324,-32.715,0.000,0
1596692437.908,-19.531,-24.414,-8.301,-27.832,0.000,0
1596692437.912,-15.137,-24.414,-9.766,-23.438,0.000,0
1596692437.916,-23.926,-21.484,-17.090,-33.203,0.000,0
1596692437.920,-38.086,-19.043,-13.184,-47.363,0.000,0
1596692437.923,-32.715,-26.367,-7.812,-41.016,0.000,0
1596692437.927,-19.531,-28.809,-10.254,-27.832,0.000,0
1596692437.931,-16.602,-23.438,-11.230,-34.180,0.000,0
1596692437.935,-20.996,-19.043,-7.324,-37.598,0.000,0
1596692437.939,-20.508,-14.648,-6.836,-28.320,0.000,0
1596692437.943,-5.371,-15.137,-5.859,-21.484,0.000,0
1596692437.947,-1.465,-20.020,-4.883,-25.391,0.000,0
1596692437.951,-22.461,-22.949,-3.906,-33.691,0.000,0
1596692437.955,-27.832,-24.414,-1.953,-36.621,0.000,0
1596692437.959,-17.090,-28.809,-4.883,-20.508,0.000,0
1596692437.963,-12.207,-25.391,-12.695,-8.789,0.000,0
1596692437.966,-13.672,-20.020,-11.719,-18.555,0.000,0
1596692437.970,-20.508,-22.949,-7.324,-27.832,0.000,0
1596692437.974,-15.625,-24.414,-11.719,-18.555,0.000,0
1596692437.978,-13.184,-23.926,-14.648,-6.836,0.000,0
1596692437.982,-23.438,-25.391,-20.996,-20.508,0.000,0
1596692437.986,-27.344,-29.785,-28.809,-36.621,0.000,0
1596692437.990,-26.855,-33.203,-24.902,-27.344,0.000,0
1596692437.994,-22.461,-33.203,-20.996,-16.602,0.000,0
1596692437.998,-21.484,-28.320,-23.926,-27.344,0.000,0
1596692438.002,-21.973,-25.879,-25.391,-33.691,0.000,0
1596692438.006,-14.648,-25.391,-19.043,-25.391,0.000,0
1596692438.009,-4.395,-19.043,-10.742,-16.113,0.000,0
1596692438.013,-8.301,-21.973,-5.859,-14.160,0.000,0
1596692438.017,-17.090,-27.344,-6.836,-23.926,0.000,0
1596692438.021,-19.531,-28.320,-6.836,-26.855,0.000,0
1596692438.025,-17.090,-26.855,-3.418,-16.113,0.000,0
1596692438.029,-8.301,-28.320,-3.906,-8.789,0.000,0
1596692438.033,-6.348,-33.203,-4.883,-14.160,0.000,0
1596692438.037,-16.113,-34.180,-3.418,-25.391,0.000,0
1596692438.041,-19.043,-36.621,-5.859,-28.809,0.000,0
1596692438.045,-12.695,-39.551,-9.766,-22.949,0.000,0
1596692438.048,-11.230,-37.109,-6.836,-12.207,0.000,0
1596692438.052,-13.184,-28.320,-3.418,-14.648,0.000,0
1596692438.056,-14.160,-25.391,-4.883,-24.902,0.000,0
1596692438.060,-10.742,-25.391,-6.836,-18.066,0.000,0
1596692438.064,-15.137,-20.508,-9.277,-15.625,0.000,0
1596692438.068,-30.762,-23.438,-10.742,-32.227,0.000,0
1596692438.072,-36.621,-32.715,-11.230,-38.574,0.000,0
1596692438.076,-27.344,-33.203,-13.184,-28.320,0.000,0
1596692438.080,-22.949,-25.879,-9.277,-24.414,0.000,0
1596692438.084,-27.832,-22.461,-9.277,-36.133,0.000,0
1596692438.088,-34.180,-21.973,-15.625,-49.316,0.000,0
1596692438.091,-33.691,-25.879,-19.531,-41.504,0.000,0
1596692438.095,-32.715,-26.855,-17.090,-25.391,0.000,0
1596692438.099,-32.227,-13.184,-12.207,-26.855,0.000,0
1596692438.103,-32.227,-10.254,-13.672,-36.621,0.000,0
1596692438.107,-32.227,-13.672,-11.719,-30.762,0.000,0
1596692438.111,-30.762,-13.672,-7.324,-17.090,0.000,0
1596692438.115,-34.180,-7.812,-12.207,-21.484,0.000,0
1596692438.119,-37.598,2.441,-10.742,-34.668,0.000,0
1596692438.123,-34.668,4.395,-7.812,-34.668,0.000,0
1596692438.127,-24.902,8.789,-12.695,-26.367,0.000,0
1596692438.131,-22.949,15.137,-16.113,-28.809,0.000,0
1596692438.134,-25.391,10.742,-16.113,-38.574,0.000,0
1596692438.138,-22.949,7.324,-13.672,-37.598,0.000,0
1596692438.142,-21.973,9.766,-10.742,-31.250,0.000,0
1596692438.146,-20.020,16.113,-5.371,-25.879,0.000,0
1596692438.150,-25.879,12.695,-3.906,-30.762,0.000,0
1596692438.154,-36.133,3.906,-9.766,-35.645,0.000,0
1596692438.158,-29.297,8.789,-7.812,-27.344,0.000,0
1596692438.162,-28.809,5.371,-7.812,-23.926,0.000,0
1596692438.166,-37.109,-2.930,-9.277,-25.879,0.000,0
1596692438.170,-34.180,3.418,-6.348,-31.250,0.000,0
1596692438.173,-30.762,6.348,-4.883,-36.133,0.000,0
1596692438.177,-26.367,0.000,-8.301,-27.344,0.000,0
1596692438.181,-28.809,-4.883,-10.254,-24.414,0.000,0
1596692438.185,-38.574,-5.371,-7.812,-30.273,0.000,0
1596692438.189,-37.598,5.371,-7.324,-33.691,0.000,0
1596692438.193,-29.297,14.648,-7.324,-26.855,0.000,0
1596692438.197,-15.625,14.160,-5.859,-20.020,0.000,0
1596692438.201,-8.789,12.207,-12.207,-29.297,0.000,0
1596692438.205,-9.766,14.648,-17.578,-26.855,0.000,0
1596692438.209,-22.949,11.719,-15.625,-30.273,0.000,0
1596692438.213,-36.621,5.859,-14.648,-42.969,0.000,0
1596692438.216,-39.062,7.812,-11.719,-43.945,0.000,0
1596692438.220,-35.645,6.836,-13.184,-43.945,0.000,0
1596692438.224,-35.156,4.883,-12.695,-48.828,0.000,0
1596692438.228,-35.645,3.418,-5.859,-41.504,0.000,0
1596692438.232,-35.156,3.906,-2.930,-41.016,0.000,0
1596692438.236,-29.297,8.789,-2.930,-46.387,0.000,0
1596692438.240,-28.809,8.789,-3.418,-34.668,0.000,0
1596692438.244,-19.531,0.977,-5.859,-18.066,0.000,0
1596692438.248,-10.254,2.930,-5.371,-20.020,0.000,0
1596692438.252,-22.461,3.906,-5.371,-32.715,0.000,0
1596692438.256,-29.785,0.488,-5.859,-32.227,0.000,0
1596692438.259,-27.344,-4.395,-7.812,-26.367,0.000,0
1596692438.263,-28.320,-3.906,-10.254,-29.297,0.000,0
1596692438.267,-35.645,0.977,-10.254,-39.062,0.000,0
1596692438.271,-41.016,-4.395,-18.555,-46.387,0.000,0
1596692438.275,-35.156,-4.395,-21.484,-38.086,0.000,0
1596692438.279,-36.133,-6.348,-21.484,-28.809,0.000,0
1596692438.283,-40.039,-12.695,-23.438,-41.992,0.000,0
1596692438.287,-34.668,-14.648,-19.043,-48.828,0.000,0
1596692438.291,-41.504,-17.578,-17.090,-32.715,0.000,0
1596692438.295,-45.410,-15.137,-12.207,-27.832,0.000,0
1596692438.298,-40.527,-15.137,-12.207,-43.457,0.000,0
1596692438.302,-36.133,-14.160,-15.137,-56.641,0.000,0
1596692438.306,-39.551,-14.648,-14.160,-50.781,0.000,0
1596692438.310,-40.527,-9.766,-7.324,-34.668,0.000,0
1596692438.314,-32.715,-6.348,-4.395,-35.645,0.000,0
1596692438.318,-39.062,-10.254,-11.719,-49.316,0.000,0
1596692438.322,-39.551,-11.230,-15.137,-48.340,0.000,0
1596692438.326,-37.109,-15.625,-15.137,-44.434,0.000,0
1596692438.330,-35.645,-17.578,-18.066,-38.574,0.000,0
1596692438.334,-30.273,-18.555,-21.973,-35.645,0.000,0
1596692438.338,-33.691,-15.625,-21.484,-48.340,0.000,0
1596692438.341,-31.738,-10.254,-16.602,-49.316,0.000,0
1596692438.345,-27.344,-11.230,-20.996,-33.691,0.000,0
1596692438.349,-33.203,-20.508,-18.066,-40.527,0.000,0
1596692438.353,-36.621,-26.855,-7.324,-49.805,0.000,0
1596692438.357,-33.203,-21.484,-11.230,-41.992,0.000,0
1596692438.361,-25.879,-20.996,-17.578,-37.109,0.000,0
1596692438.365,-27.344,-20.508,-15.625,-39.062,0.000,0
1596692438.369,-35.156,-17.090,-9.277,-42.480,0.000,0
1596692438.373,-25.879,-20.508,-4.883,-35.645,0.000,0
1596692438.377,-14.648,-25.879,-4.395,-20.996,0.000,0
1596692438.381,-21.484,-23.438,3.906,-18.066,0.000,0
1596692438.384,-30.762,-20.996,9.766,-28.320,0.000,0
1596692438.388,-27.832,-25.879,8.789,-29.297,0.000,0
1596692438.392,-16.113,-25.879,5.859,-17.578,0.000,0
1596692438.396,-16.602,-25.391,-1.953,-21.973,0.000,0
1596692438.400,-27.832,-21.973,-4.395,-36.133,0.000,0
1596692438.404,-28.809,-22.461,-11.719,-33.691,0.000,0
1596692438.408,-25.879,-25.391,-12.207,-24.414,0.000,0
1596692438.412,-27.344,-28.809,-4.395,-24.902,0.000,0
1596692438.416,-31.738,-28.320,-5.371,-33.203,0.000,0
1596692438.420,-26.367,-20.508,0.000,-29.297,0.000,0
1596692438.423,-19.531,-18.555,6.836,-13.672,0.000,0
1596692438.427,-19.531,-21.973,3.906,-13.672,0.000,0
1596692438.431,-22.949,-24.414,-1.953,-27.344,0.000,0
1596692438.435,-20.508,-19.043,-1.953,-34.668,0.000,0
1596692438.439,-12.207,-11.719,-0.488,-30.762,0.000,0
1596692438.443,-17.578,-13.672,-3.906,-19.043,0.000,0
1596692438.447,-23.438,-17.578,-4.395,-22.949,0.000,0
1596692438.451,-22.461,-17.578,-5.371,-33.203,0.000,0
1596692438.455,-31.250,-18.555,-8.789,-36.133,0.000,0
1596692438.459,-32.227,-17.578,-7.812,-32.227,0.000,0
1596692438.463,-25.391,-18.066,-1.953,-24.902,0.000,0
1596692438.466,-27.344,-21.973,-3.418,-26.855,0.000,0
1596692438.470,-27.344,-21.484,-7.812,-34.180,0.000,0
1596692438.474,-25.879,-15.625,-10.254,-35.156,0.000,0
1596692438.478,-25.879,-20.020,-12.695,-27.832,0.000,0
1596692438.482,-28.320,-30.762,-17.578,-27.832,0.000,0
1596692438.486,-33.203,-29.785,-15.137,-34.180,0.000,0
1596692438.490,-32.227,-25.391,-9.766,-36.621,0.000,0
1596692438.494,-21.484,-27.832,-10.254,-27.832,0.000,0
1596692438.498,-15.137,-28.320,-12.207,-27.344,0.000,0
1596692438.502,-24.902,-26.367,-12.695,-44.434,0.000,0
1596692438.506,-32.227,-21.484,-8.301,-52.246,0.000,0
1596692438.509,-30.273,-23.438,-5.371,-31.250,0.000,0
1596692438.513,-32.715,-30.762,-11.719,-19.531,0.000,0
1596692438.517,-33.691,-28.320,-14.160,-33.691,0.000,0
1596692438.521,-31.738,-24.414,-8.789,-35.645,0.000,0
1596692438.525,-23.438,-23.926,-9.766,-23.438,0.000,0
1596692438.529,-20.020,-23.438,-12.207,-20.508,0.000,0
1596692438.533,-22.461,-20.020,-13.184,-28.809,0.000,0
1596692438.537,-22.949,-16.113,-16.602,-30.762,0.000,0
1596692438.541,-20.996,-15.625,-19.043,-25.391,0.000,0
1596692438.545,-20.996,-19.531,-16.113,-25.391,0.000,0
1596692438.548,-28.809,-20.996,-10.254,-24.902,0.000,0
1596692438.552,-35.156,-19.043,-12.695,-32.715,0.000,0
1596692438.556,-33.691,-25.391,-17.090,-30.762,0.000,0
1596692438.560,-28.320,-27.832,-14.160,-19.043,0.000,0
1596692438.564,-25.391,-19.531,-9.766,-24.414,0.000,0
1596692438.568,-29.297,-20.996,-12.207,-32.227,0.000,0
1596692438.572,-29.297,-23.926,-13.672,-24.414,0.000,0
1596692438.576,-28.320,-20.020,-15.137,-17.090,0.000,0
1596692438.580,-23.926,-10.742,-16.602,-15.137,0.000,0
1596692438.584,-23.926,-12.207,-10.742,-20.020,0.000,0
1596692438.588,-28.809,-21.973,-6.836,-22.461,0.000,0
1596692438.591,-28.320,-20.020,-5.371,-18.555,0.000,0
1596692438.595,-26.855,-19.531,-6.836,-24.902,0.000,0
1596692438.599,-27.344,-24.414,-7.324,-24.902,0.000,0
1596692438.603,-28.809,-27.344,-3.906,-23.438,0.000,0
1596692438.607,-24.902,-25.879,-0.977,-23.438,0.000,0
1596692438.611,-20.020,-24.414,-2.441,-17.578,0.000,0
1596692438.615,-20.020,-23.926,-4.395,-16.602,0.000,0
1596692438.619,-18.555,-16.113,-2.441,-19.043,0.000,0
1596692438.623,-22.461,-13.184,-3.906,-23.926,0.000,0
1596692438.627,-30.273,-20.996,-4.395,-19.531,0.000,0
1596692438.631,-27.832,-26.855,-3.906,-17.578,0.000,0
1596692438.634,-28.320,-25.879,-7.812,-27.344,0.000,0
1596692438.638,-26.855,-18.555,-6.836,-26.855,0.000,0
1596692438.642,-16.602,-18.555,0.000,-15.625,0.000,0
1596692438.646,-9.277,-23.438,1.953,-5.859,0.000,0
1596692438.650,-11.719,-19.531,0.000,-3.418,0.000,0
1596692438.654,-21.484,-20.508,-1.953,-17.578,0.000,0
1596692438.658,-27.832,-26.855,-6.836,-32.715,0.000,0
1596692438.662,-20.508,-23.438,-3.906,-18.066,0.000,0
1596692438.666,-21.973,-23.438,-7.324,-22.461,0.000,0
1596692438.670,-30.762,-24.414,-10.254,-43.457,0.000,0
1596692438.673,-22.949,-23.926,-7.324,-36.133,0.000,0
1596692438.677,-9.766,-28.809,-8.789,-19.531,0.000,0
1596692438.681,-8.789,-32.227,-8.789,-16.602,0.000,0
1596692438.685,-17.090,-26.367,-13.672,-28.809,0.000,0
1596692438.689,-15.137,-24.902,-20.996,-32.715,0.000,0
1596692438.693,-7.324,-27.832,-19.043,-24.902,0.000,0
1596692438.697,-10.254,-30.273,-16.113,-24.902,0.000,0
1596692438.701,-20.020,-26.367,-15.625,-34.668,0.000,0
1596692438.705,-19.043,-24.414,-9.277,-32.227,0.000,0
1596692438.709,-15.137,-28.809,-6.348,-9.766,0.000,0
1596692438.713,-13.672,-26.367,-7.812,-13.672,0.000,0
1596692438.716,-15.625,-25.879,-8.301,-38.574,0.000,0
1596692438.720,-22.949,-34.180,-13.184,-40.527,0.000,0
1596692438.724,-19.531,-33.691,-12.207,-28.320,0.000,0
1596692438.728,-8.789,-26.367,-6.836,-16.602,0.000,0
1596692438.732,-16.602,-27.344,-8.301,-27.832,0.000,0
1596692438.736,-28.320,-33.203,-9.766,-43.457,0.000,0
1596692438.740,-31.738,-35.156,-9.277,-36.133,0.000,0
1596692438.744,-23.926,-32.715,-11.230,-20.996,0.000,0
1596692438.748,-12.695,-29.297,-9.766,-25.879,0.000,0
1596692438.752,-27.344,-34.180,-13.672,-40.527,0.000,0
1596692438.756,-35.645,-36.621,-16.113,-37.598,0.000,0
1596692438.759,-23.438,-24.902,-6.348,-23.926,0.000,0
1596692438.763,-18.555,-20.996,-4.883,-28.809,0.000,0
1596692438.767,-18.555,-23.438,-7.324,-36.621,0.000,0
1596692438.771,-25.879,-26.855,-7.812,-37.598,0.000,0
1596692438.775,-27.344,-28.809,-6.836,-25.879,0.000,0
1596692438.779,-19.043,-26.855,0.488,-15.137,0.000,0
1596692438.783,-19.531,-25.879,2.441,-29.297,0.000,0
1596692438.787,-28.809,-25.879,-0.488,-37.109,0.000,0
1596692438.791,-25.879,-28.809,0.488,-26.367,0.000,0
1596692438.795,-14.160,-25.879,0.000,-12.695,0.000,0
1596692438.798,-11.230,-20.996,-5.371,-14.160,0.000,0
1596692438.802,-19.043,-24.414,-10.742,-27.832,0.000,0
1596692438.806,-26.367,-28.320,-13.184,-23.926,0.000,0
1596692438.810,-17.578,-32.227,-12.695,-20.508,0.000,0
1596692438.814,-14.160,-33.691,-13.672,-25.879,0.000,0
1596692438.818,-29.297,-28.320,-13.184,-27.344,0.000,0
1596692438.822,-26.367,-29.785,-11.719,-21.973,0.000,0
1596692438.826,-23.438,-33.203,-14.160,-15.625,0.000,0
1596692438.830,-18.066,-25.391,-12.207,-11.719,0.000,0
1596692438.834,-13.672,-18.555,-9.277,-9.766,0.000,0
1596692438.838,-10.254,-17.090,-7.324,-12.207,0.000,0
1596692438.841,-5.371,-19.531,-4.395,-5.859,0.000,0
1596692438.845,-7.812,-23.926,-4.395,-3.418,0.000,0
1596692438.849,-15.137,-27.832,-8.301,-20.508,0.000,0
1596692438.853,-14.648,-25.879,-10.254,-22.949,0.000,0
1596692438.857,-8.789,-26.367,-6.348,-11.719,0.000,0
1596692438.861,-12.207,-28.809,-7.324,-14.648,0.000,0
1596692438.865,-20.508,-26.855,-9.277,-29.785,0.000,0
1596692438.869,-24.902,-29.785,-14.160,-42.969,0.000,0
1596692438.873,-23.438,-37.109,-20.020,-38.086,0.000,0
1596692438.877,-17.578,-39.062,-15.137,-25.391,0.000,0
1596692438.881,-24.902,-31.250,-7.812,-29.297,0.000,0
1596692438.884,-31.250,-28.320,-6.348,-36.621,0.000,0
1596692438.888,-29.785,-32.227,-11.719,-25.391,0.000,0
1596692438.892,-28.809,-28.809,-11.230,-17.578,0.000,0
1596692438.896,-21.484,-23.438,-7.812,-21.973,0.000,0
1596692438.900,-28.320,-23.926,-7.812,-25.879,0.000,0
1596692438.904,-33.203,-20.996,-5.371,-35.645,0.000,0
1596692438.908,-24.902,-17.578,-3.906,-28.809,0.000,0
1596692438.912,-20.508,-19.043,-5.859,-15.137,0.000,0
1596692438.916,-21.973,-20.020,-5.859,-16.113,0.000,0
1596692438.920,-19.043,-16.113,-3.418,-28.809,0.000,0
1596692438.923,-11.230,-14.160,-4.395,-27.832,0.000,0
1596692438.927,-7.812,-15.137,-5.859,-9.277,0.000,0
1596692438.931,-10.254,-15.625,-5.371,-6.348,0.000,0
1596692438.935,-15.625,-10.742,-5.859,-14.160,0.000,0
1596692438.939,-20.508,-8.789,-1.465,-15.137,0.000,0
1596692438.943,-13.184,-11.230,1.465,-12.207,0.000,0
1596692438.947,-9.277,-16.602,-3.418,-10.254,0.000,0
1596692438.951,-10.254,-14.160,-1.465,-20.996,0.000,0
1596692438.955,-2.930,-7.324,2.441,-32.715,0.000,0
1596692438.959,-7.324,-7.812,-3.906,-20.996,0.000,0
1596692438.963,-10.742,-11.230,-9.766,-19.531,0.000,0
1596692438.966,-6.348,-12.695,-10.254,-25.391,0.000,0
1596692438.970,-17.578,-17.578,-11.719,-24.414,0.000,0
1596692438.974,-14.160,-18.555,-8.789,-18.066,0.000,0
1596692438.978,-12.695,-20.020,-8.789,-14.160,0.000,0
1596692438.982,-15.625,-19.531,-8.301,-20.508,0.000,0
1596692438.986,-16.113,-15.625,-1.465,-27.344,0.000,0
1596692438.990,-20.996,-20.020,-7.812,-17.578,0.000,0
1596692438.994,-15.625,-25.391,-16.602,-11.719,0.000,0
1596692438.998,-17.578,-22.461,-17.578,-20.996,0.000,0
1596692439.002,-20.020,-16.602,-14.160,-29.297,0.000,0
1596692439.006,-10.254,-16.602,-9.766,-23.926,0.000,0
1596692439.009,0.000,-13.184,-1.953,-11.230,0.000,0
1596692439.013,5.859,-11.230,4.395,-7.324,0.000,0
1596692439.017,-7.324,-19.531,-4.395,-19.043,0.000,0
1596692439.021,-13.672,-23.438,-9.277,-25.879,0.000,0
1596692439.025,-5.859,-25.879,-7.812,-13.184,0.000,0
1596692439.029,-14.160,-24.414,-11.230,-16.113,0.000,0
1596692439.033,-19.043,-20.020,-16.602,-26.855,0.000,0
1596692439.037,-21.484,-21.973,-19.043,-30.273,0.000,0
1596692439.041,-16.602,-23.438,-12.695,-16.113,0.000,0
1596692439.045,-10.742,-21.484,-7.812,-6.348,0.000,0
1596692439.048,-11.719,-20.508,-4.883,-14.160,0.000,0
1596692439.052,-13.184,-16.113,-3.418,-16.602,0.000,0
1596692439.056,-5.371,-9.277,-5.371,-7.324,0.000,0
1596692439.060,-6.348,-12.207,-11.719,1.465,0.000,0
1596692439.064,-14.160,-20.508,-16.113,-0.977,0.000,0
1596692439.068,-16.113,-23.438,-13.672,-14.160,0.000,0
1596692439.072,-17.578,-19.043,-14.160,-20.996,0.000,0
1596692439.076,-15.137,-17.578,-17.578,-15.137,0.000,0
1596692439.080,-18.555,-16.602,-15.625,-13.672,0.000,0
1596692439.084,-19.531,-22.461,-11.230,-12.695,0.000,0
1596692439.088,-5.371,-25.391,-8.789,-11.719,0.000,0
1596692439.091,-4.395,-20.020,-6.836,-9.766,0.000,0
1596692439.095,-17.578,-22.949,-9.277,-14.648,0.000,0
1596692439.099,-19.531,-23.438,-18.066,-24.414,0.000,0
1596692439.103,-21.484,-17.578,-14.648,-32.715,0.000,0
1596692439.107,-18.066,-14.160,-6.348,-29.785,0.000,0
1596692439.111,-8.789,-15.137,-10.742,-19.043,0.000,0
1596692439.115,-9.277,-19.043,-12.695,-19.531,0.000,0
1596692439.119,-12.207,-24.902,-12.207,-20.020,0.000,2
1596692439.123,-16.602,-25.879,-10.254,-18.066,0.000,0
1596692439.127,-12.695,-27.832,-10.742,-9.766,0.000,0
1596692439.131,-12.207,-28.809,-16.113,-11.719,0.000,0
1596692439.134,-20.020,-20.996,-18.555,-30.762,0.000,0
1596692439.138,-19.043,-21.973,-18.555,-30.762,0.000,0
1596692439.142,-17.578,-26.855,-19.043,-19.043,0.000,0
1596692439.146,-16.113,-20.508,-11.230,-6.836,0.000,0
1596692439.150,-9.766,-19.043,-3.906,-12.207,0.000,0
1596692439.154,-9.766,-20.508,-0.977,-24.902,0.000,0
1596692439.158,-12.207,-20.996,1.465,-6.348,0.000,0
1596692439.162,-10.254,-26.855,-2.930,3.906,0.000,0
1596692439.166,-14.648,-31.250,-9.766,-18.066,0.000,0
1596692439.170,-23.926,-30.762,-13.672,-25.879,0.000,0
1596692439.173,-28.809,-32.715,-17.578,-14.160,0.000,0
1596692439.177,-20.996,-30.762,-16.113,-6.836,0.000,0
1596692439.181,-19.043,-20.996,-6.348,-15.625,0.000,0
1596692439.185,-26.855,-16.602,-8.301,-29.785,0.000,0
1596692439.189,-25.391,-20.508,-13.672,-20.996,0.000,0
1596692439.193,-20.996,-25.879,-11.719,-8.301,0.000,0
1596692439.197,-24.414,-22.949,-12.695,-12.207,0.000,0
1596692439.201,-29.297,-21.484,-13.184,-22.461,0.000,0
1596692439.205,-25.391,-22.949,-15.137,-29.785,0.000,0
1596692439.209,-19.043,-20.508,-15.625,-26.367,0.000,0
1596692439.213,-10.254,-20.020,-13.184,-21.484,0.000,0
1596692439.216,-6.836,-20.996,-12.695,-20.020,0.000,0
1596692439.220,-17.090,-20.020,-13.184,-21.973,0.000,0
1596692439.224,-23.926,-17.090,-10.742,-24.414,0.000,0
1596692439.228,-25.391,-21.484,-15.137,-22.949,0.000,0
1596692439.232,-26.855,-25.391,-21.973,-30.273,0.000,0
1596692439.236,-30.762,-25.391,-25.391,-35.156,0.000,0
1596692439.240,-26.855,-24.414,-24.414,-29.785,0.000,0
1596692439.244,-18.555,-26.855,-23.926,-23.438,0.000,0
1596692439.248,-23.438,-28.809,-25.391,-22.949,0.000,0
1596692439.252,-23.438,-22.461,-23.438,-29.785,0.000,0
1596692439.256,-23.926,-21.973,-20.508,-31.250,0.000,0
1596692439.259,-26.367,-33.203,-26.855,-26.855,0.000,0
1596692439.263,-22.949,-43.945,-30.273,-20.508,0.000,0
1596692439.267,-35.645,-44.922,-27.832,-26.367,0.000,0
1596692439.271,-35.156,-41.504,-29.297,-32.227,0.000,0
1596692439.275,-23.438,-36.133,-23.926,-25.879,0.000,0
1596692439.279,-35.156,-36.133,-19.531,-31.738,0.000,0
1596692439.283,-41.992,-30.762,-21.973,-47.363,0.000,0
1596692439.287,-43.457,-26.367,-23.438,-48.828,0.000,0
1596692439.291,-41.016,-32.227,-22.461,-33.203,0.000,0
1596692439.295,-34.180,-36.133,-23.438,-20.020,0.000,0
1596692439.298,-37.109,-37.598,-26.855,-27.344,0.000,0
1596692439.302,-40.039,-36.133,-27.344,-44.434,0.000,0
1596692439.306,-30.273,-34.668,-26.367,-30.762,0.000,0
1596692439.310,-21.484,-32.227,-18.555,-6.836,0.000,0
1596692439.314,-24.414,-27.344,-14.160,-17.578,0.000,0
1596692439.318,-41.504,-26.855,-22.461,-34.668,0.000,0
1596692439.322,-43.457,-29.785,-21.973,-29.785,0.000,0
1596692439.326,-28.809,-30.273,-19.043,-17.578,0.000,0
1596692439.330,-29.297,-25.879,-20.020,-20.508,0.000,0
1596692439.334,-32.715,-27.832,-20.508,-37.109,0.000,0
1596692439.338,-29.297,-30.762,-17.090,-41.016,0.000,0
1596692439.341,-37.109,-35.645,-18.555,-40.039,0.000,0
1596692439.345,-48.828,-41.992,-24.414,-43.945,0.000,0
1596692439.349,-46.875,-37.598,-22.949,-41.992,0.000,0
1596692439.353,-37.109,-26.367,-19.043,-29.297,0.000,0
1596692439.357,-32.715,-25.391,-21.973,-29.297,0.000,0
1596692439.361,-29.785,-27.344,-20.020,-27.832,0.000,0
1596692439.365,-25.879,-27.832,-17.090,-32.715,0.000,0
1596692439.369,-28.809,-29.785,-19.531,-45.410,0.000,0
1596692439.373,-25.391,-27.832,-17.090,-34.668,0.000,0
1596692439.377,-20.020,-29.297,-14.160,-24.414,0.000,0
1596692439.381,-26.367,-33.691,-17.578,-31.250,0.000,0
1596692439.384,-37.598,-32.715,-17.090,-44.922,0.000,0
1596692439.388,-43.457,-32.715,-14.648,-43.457,0.000,0
1596692439.392,-29.785,-35.156,-16.602,-29.297,0.000,0
1596692439.396,-25.391,-31.250,-19.043,-24.414,0.000,0
1596692439.400,-38.086,-33.203,-19.043,-29.297,0.000,0
1596692439.404,-34.180,-35.156,-15.625,-33.203,0.000,0
1596692439.408,-29.297,-28.809,-8.789,-27.832,0.000,0
1596692439.412,-25.391,-29.785,-10.254,-10.254,0.000,0
1596692439.416,-22.461,-38.574,-17.090,-13.672,0.000,0
1596692439.420,-33.203,-37.109,-19.043,-46.387,0.000,0
1596692439.423,-28.809,-31.738,-16.602,-46.875,0.000,0
1596692439.427,-21.973,-32.715,-15.137,-31.250,0.000,0
1596692439.431,-24.414,-32.715,-12.695,-33.691,0.000,0
1596692439.435,-22.461,-30.273,-15.137,-38.086,0.000,0
1596692439.439,-25.879,-33.691,-21.973,-39.551,0.000,0
1596692439.443,-22.949,-28.809,-16.602,-23.438,0.000,0
1596692439.447,-15.625,-26.855,-12.695,-15.625,0.000,0
1596692439.451,-17.578,-26.855,-14.160,-36.133,0.000,0
1596692439.455,-22.949,-19.531,-7.324,-37.109,0.000,0
1596692439.459,-13.184,-20.996,-4.395,-22.949,0.000,0
1596692439.463,-5.859,-24.902,-10.254,-22.461,0.000,0
1596692439.466,-19.531,-21.484,-11.719,-30.762,0.000,0
1596692439.470,-28.809,-19.043,-8.301,-25.879,0.000,0
1596692439.474,-17.090,-21.484,-8.789,-17.578,0.000,0
1596692439.478,-7.812,-21.973,-11.719,-21.484,0.000,0
1596692439.482,-11.719,-20.996,-12.207,-25.391,0.000,0
