timestamps,TP9,AF7,AF8,TP10,Right AUX,Marker0
1595393584.504,63.965,-32.227,-18.066,-26.367,0.000,0
1595393584.508,187.988,-29.785,-12.207,-7.324,0.000,0
1595393584.511,-61.035,-32.715,-14.160,-20.996,0.000,0
1595393584.515,-228.027,-29.297,-14.160,-28.320,0.000,0
1595393584.519,-19.043,-25.879,-12.207,-27.344,0.000,0
1595393584.523,197.754,-25.391,-14.160,-16.113,0.000,0
1595393584.527,39.551,-26.855,-16.602,-14.160,0.000,0
1595393584.531,-221.191,-26.367,-17.578,-31.250,0.000,0
1595393584.535,-114.746,-27.832,-15.137,-30.762,0.000,0
1595393584.539,168.945,-29.785,-12.207,-22.461,0.000,0
1595393584.543,112.305,-31.738,-12.207,-21.484,0.000,0
1595393584.547,-188.965,-34.668,-19.531,-32.227,0.000,0
1595393584.551,-181.641,-32.715,-18.555,-37.109,0.000,0
1595393584.554,118.652,-25.391,-16.113,-32.715,0.000,0
1595393584.558,184.082,-18.066,-23.926,-24.414,0.000,0
1595393584.562,-95.703,-19.043,-24.902,-6.836,0.000,0
1595393584.566,-187.988,-27.344,-17.578,-9.277,0.000,0
1595393584.570,62.012,-27.832,-14.160,-28.320,0.000,0
1595393584.574,182.129,-25.879,-10.742,-19.043,0.000,0
1595393584.578,-30.762,-29.785,-9.277,-12.207,0.000,0
1595393584.582,-240.234,-36.133,-12.207,-41.992,0.000,0
1595393584.586,-59.570,-40.527,-10.254,-46.875,0.000,0
1595393584.590,179.688,-35.645,-7.812,-26.367,0.000,0
1595393584.594,23.438,-32.227,-5.859,-28.320,0.000,0
1595393584.597,-235.840,-36.133,-2.441,-41.016,0.000,0
1595393584.601,-136.230,-37.598,-8.789,-44.434,0.000,0
1595393584.605,145.508,-38.574,-17.578,-31.738,0.000,0
1595393584.609,114.258,-41.016,-14.648,-16.113,0.000,0
1595393584.613,-173.340,-38.086,-10.742,-16.602,0.000,0
1595393584.617,-190.430,-37.109,-10.254,-18.066,0.000,0
1595393584.621,95.703,-41.016,-9.277,-11.230,0.000,0
1595393584.625,165.039,-45.898,-11.230,-9.766,0.000,0
1595393584.629,-105.957,-52.246,-14.648,-26.855,0.000,0
1595393584.633,-226.562,-50.781,-18.555,-35.645,0.000,0
1595393584.636,18.066,-44.922,-17.090,-28.320,0.000,0
1595393584.640,180.664,-44.434,-14.160,-19.531,0.000,0
1595393584.644,-21.484,-42.969,-13.184,-15.625,0.000,0
1595393584.648,-232.422,-47.363,-14.648,-20.996,0.000,0
1595393584.652,-75.195,-46.875,-14.160,-34.180,0.000,0
1595393584.656,174.316,-40.039,-11.719,-27.344,0.000,0
1595393584.660,67.383,-36.133,-12.207,-14.648,0.000,0
1595393584.664,-203.125,-40.527,-8.789,-21.484,0.000,0
1595393584.668,-150.391,-46.875,-5.859,-30.273,0.000,0
1595393584.672,129.883,-46.387,-10.742,-29.785,0.000,0
1595393584.676,125.977,-43.945,-12.695,-23.438,0.000,0
1595393584.679,-168.457,-49.805,-13.184,-25.879,0.000,0
1595393584.683,-219.238,-54.688,-15.625,-37.109,0.000,0
1595393584.687,74.707,-47.363,-14.648,-37.598,0.000,0
1595393584.691,184.570,-42.480,-15.137,-27.832,0.000,0
1595393584.695,-84.961,-45.410,-13.672,-26.367,0.000,0
1595393584.699,-240.234,-43.945,-16.602,-35.645,0.000,0
1595393584.703,-4.395,-34.668,-15.625,-31.738,0.000,0
1595393584.707,193.848,-36.621,-12.695,-22.949,0.000,0
1595393584.711,2.441,-42.480,-16.113,-22.461,0.000,0
1595393584.715,-228.027,-39.062,-17.090,-29.785,0.000,0
1595393584.719,-83.008,-36.133,-12.207,-34.668,0.000,0
1595393584.722,178.711,-37.598,-11.230,-30.273,0.000,0
1595393584.726,86.426,-38.574,-16.602,-24.902,0.000,0
1595393584.730,-190.918,-36.621,-19.043,-28.809,0.000,0
1595393584.734,-152.832,-33.203,-22.461,-46.875,0.000,0
1595393584.738,139.648,-33.203,-15.137,-40.527,0.000,0
1595393584.742,161.133,-33.691,-5.859,-21.973,0.000,0
1595393584.746,-134.277,-34.180,-12.207,-30.273,0.000,0
1595393584.750,-208.008,-31.250,-18.066,-37.598,0.000,0
1595393584.754,71.777,-28.320,-15.137,-33.691,0.000,0
1595393584.758,200.684,-28.320,-10.254,-24.902,0.000,0
1595393584.761,-38.574,-30.273,-9.766,-12.695,0.000,0
1595393584.765,-216.797,-32.227,-13.672,-26.855,0.000,0
1595393584.769,-24.414,-28.809,-14.648,-37.109,0.000,0
1595393584.773,194.336,-29.297,-9.766,-23.438,0.000,0
1595393584.777,41.504,-36.133,-12.207,-18.555,0.000,0
1595393584.781,-215.332,-33.203,-18.555,-30.273,0.000,0
1595393584.785,-105.957,-28.320,-19.043,-37.598,0.000,0
1595393584.789,179.688,-27.832,-15.625,-19.531,0.000,0
1595393584.793,118.164,-23.926,-14.160,-11.230,0.000,0
1595393584.797,-174.316,-21.484,-13.184,-26.855,0.000,0
1595393584.801,-166.504,-28.320,-13.672,-33.691,0.000,0
1595393584.804,120.117,-29.785,-14.160,-28.320,0.000,0
1595393584.808,162.109,-27.344,-14.160,-16.602,0.000,0
1595393584.812,-114.258,-26.855,-16.113,-14.648,0.000,0
1595393584.816,-210.449,-27.344,-17.090,-26.855,0.000,0
1595393584.820,41.504,-27.344,-10.742,-17.578,0.000,0
1595393584.824,196.777,-24.414,-8.789,-0.977,0.000,1
1595393584.828,-22.949,-30.273,-13.672,-4.883,0.000,0
1595393584.832,-227.051,-36.621,-15.137,-17.090,0.000,0
1595393584.836,-40.527,-34.180,-14.648,-18.066,0.000,0
1595393584.840,199.219,-34.668,-17.578,-10.254,0.000,0
1595393584.844,53.711,-38.574,-23.438,-15.137,0.000,0
1595393584.847,-214.355,-40.039,-24.902,-33.203,0.000,0
1595393584.851,-120.605,-33.691,-17.578,-33.691,0.000,0
1595393584.855,158.203,-28.809,-13.184,-28.320,0.000,0
1595393584.859,117.188,-31.738,-13.184,-26.855,0.000,0
1595393584.863,-171.387,-36.133,-14.160,-20.020,0.000,0
1595393584.867,-187.012,-31.738,-12.207,-23.926,0.000,0
1595393584.871,107.422,-31.738,-14.160,-30.762,0.000,0
1595393584.875,183.105,-39.062,-18.066,-30.273,0.000,0
1595393584.879,-99.121,-41.992,-19.531,-33.203,0.000,0
1595393584.883,-227.539,-39.551,-13.672,-34.180,0.000,0
1595393584.886,15.137,-35.645,-7.812,-34.180,0.000,0
1595393584.890,188.965,-35.645,-8.301,-29.297,0.000,0
1595393584.894,-13.672,-35.156,-10.742,-26.855,0.000,0
1595393584.898,-231.934,-32.715,-20.020,-33.691,0.000,0
1595393584.902,-64.453,-31.738,-16.602,-37.598,0.000,0
1595393584.906,189.453,-37.109,-7.812,-14.160,0.000,0
1595393584.910,81.543,-44.434,-8.301,7.812,0.000,0
1595393584.914,-177.246,-41.992,-11.719,-3.906,0.000,0
1595393584.918,-125.488,-27.344,-18.066,-30.762,0.000,0
1595393584.922,141.113,-24.902,-23.438,-45.898,0.000,0
1595393584.926,130.371,-22.461,-21.484,-34.668,0.000,0
1595393584.929,-164.551,-24.902,-24.902,-37.598,0.000,0
1595393584.933,-206.543,-31.250,-30.273,-58.594,0.000,0
1595393584.937,68.359,-27.344,-33.691,-58.594,0.000,0
1595393584.941,161.621,-23.438,-37.109,-44.922,0.000,0
1595393584.945,-83.984,-20.996,-34.180,-41.016,0.000,0
1595393584.949,-221.680,-18.555,-31.738,-43.457,0.000,0
1595393584.953,0.488,-21.484,-30.762,-35.156,0.000,0
1595393584.957,185.547,-20.996,-32.715,-37.598,0.000,0
1595393584.961,5.859,-17.578,-34.180,-44.922,0.000,0
1595393584.965,-223.633,-20.020,-33.203,-42.969,0.000,0
1595393584.969,-80.078,-17.578,-33.691,-50.781,0.000,0
1595393584.972,181.641,-17.090,-32.227,-44.922,0.000,0
1595393584.976,89.844,-21.484,-30.273,-30.762,0.000,0
1595393584.980,-187.500,-27.832,-27.344,-30.273,0.000,0
1595393584.984,-162.109,-27.344,-22.461,-34.180,0.000,0
1595393584.988,127.930,-19.531,-25.879,-38.574,0.000,0
1595393584.992,154.785,-18.066,-25.879,-34.180,0.000,0
1595393584.996,-136.719,-22.949,-25.879,-36.133,0.000,0
1595393585.000,-218.750,-26.855,-30.273,-45.898,0.000,0
1595393585.004,59.570,-27.344,-26.367,-47.363,0.000,0
1595393585.008,185.059,-24.902,-28.809,-36.621,0.000,0
1595393585.011,-67.871,-26.855,-32.227,-41.992,0.000,0
1595393585.015,-236.816,-32.227,-27.832,-51.270,0.000,0
1595393585.019,-31.250,-29.785,-23.438,-42.480,0.000,0
1595393585.023,177.246,-25.391,-20.020,-30.762,0.000,0
1595393585.027,17.090,-21.973,-20.020,-29.297,0.000,0
1595393585.031,-225.586,-19.043,-20.020,-43.457,0.000,0
1595393585.035,-110.352,-20.020,-19.043,-49.805,0.000,0
1595393585.039,166.016,-24.414,-21.484,-42.480,0.000,0
1595393585.043,101.074,-34.668,-23.926,-36.621,0.000,0
1595393585.047,-198.242,-36.133,-22.949,-41.016,0.000,0
1595393585.051,-191.895,-40.527,-30.762,-61.035,0.000,0
1595393585.054,110.840,-39.062,-31.250,-52.246,0.000,0
1595393585.058,151.367,-33.691,-27.832,-36.621,0.000,0
1595393585.062,-128.418,-32.715,-29.785,-40.039,0.000,0
1595393585.066,-218.262,-24.902,-24.414,-41.504,0.000,0
1595393585.070,39.551,-25.879,-18.555,-35.156,0.000,0
1595393585.074,189.941,-28.320,-14.648,-24.414,0.000,0
1595393585.078,-34.180,-29.297,-13.672,-21.973,0.000,0
1595393585.082,-229.980,-33.691,-15.625,-25.879,0.000,0
1595393585.086,-51.758,-39.062,-18.555,-32.715,0.000,0
1595393585.090,180.664,-40.039,-18.555,-35.156,0.000,0
1595393585.094,47.363,-35.645,-13.672,-30.762,0.000,0
1595393585.097,-201.172,-35.156,-17.090,-30.273,0.000,0
1595393585.101,-107.422,-31.738,-23.438,-38.574,0.000,0
1595393585.105,163.086,-22.461,-17.578,-40.527,0.000,0
1595393585.109,117.188,-23.926,-13.672,-36.621,0.000,0
1595393585.113,-172.852,-33.203,-12.695,-38.086,0.000,0
1595393585.117,-186.035,-41.504,-17.090,-41.016,0.000,0
1595393585.121,107.422,-35.645,-15.625,-31.250,0.000,0
1595393585.125,183.594,-27.832,-7.324,-19.043,0.000,0
1595393585.129,-104.004,-41.504,-7.324,-28.809,0.000,0
1595393585.133,-232.910,-49.316,-9.766,-42.480,0.000,0
1595393585.136,27.344,-37.598,-0.977,-26.855,0.000,0
1595393585.140,200.195,-36.621,2.441,-17.090,0.000,0
1595393585.144,-6.836,-41.504,-3.418,-21.484,0.000,0
1595393585.148,-209.473,-40.527,-0.977,-23.438,0.000,0
1595393585.152,-39.062,-34.180,3.906,-22.949,0.000,0
1595393585.156,208.984,-31.738,2.930,-19.531,0.000,0
1595393585.160,83.008,-36.621,0.977,-20.508,0.000,0
1595393585.164,-199.219,-42.969,-2.930,-26.367,0.000,0
1595393585.168,-128.906,-46.387,-6.348,-32.715,0.000,0
1595393585.172,162.109,-38.574,-7.324,-20.508,0.000,0
1595393585.176,147.461,-32.227,-7.812,-3.906,0.000,0
1595393585.179,-148.438,-35.156,-12.695,-14.648,0.000,0
1595393585.183,-196.289,-33.203,-12.207,-26.855,0.000,0
1595393585.187,93.750,-24.902,-8.301,-18.066,0.000,0
1595393585.191,192.383,-27.344,-10.742,-16.113,0.000,0
1595393585.195,-68.359,-29.785,-7.324,-18.066,0.000,0
1595393585.199,-207.520,-25.879,-2.441,-21.973,0.000,0
1595393585.203,18.555,-27.832,-0.488,-20.508,0.000,0
1595393585.207,207.031,-28.320,-2.441,-8.301,0.000,0
1595393585.211,14.160,-27.344,-7.324,-6.348,0.000,0
1595393585.215,-219.238,-27.832,-11.230,-13.672,0.000,0
1595393585.219,-75.684,-31.738,-14.648,-21.973,0.000,0
1595393585.222,187.500,-24.902,-11.719,-13.672,0.000,0
1595393585.226,97.656,-17.578,-10.254,-9.766,0.000,0
1595393585.230,-185.547,-23.438,-13.184,-23.438,0.000,0
1595393585.234,-150.879,-26.855,-11.230,-35.645,0.000,0
1595393585.238,136.230,-28.320,-11.230,-20.508,0.000,0
1595393585.242,161.133,-33.691,-11.719,-10.742,0.000,0
1595393585.246,-125.977,-32.227,-9.766,-29.785,0.000,0
1595393585.250,-211.914,-29.297,-9.277,-37.598,0.000,0
1595393585.254,62.012,-31.738,-5.371,-30.762,0.000,0
1595393585.258,194.824,-29.297,-7.812,-27.832,0.000,0
1595393585.261,-45.898,-31.738,-13.184,-27.832,0.000,0
1595393585.265,-221.680,-28.809,-6.348,-21.484,0.000,0
1595393585.269,-20.020,-25.879,-9.766,-29.297,0.000,0
1595393585.273,192.871,-28.809,-16.602,-30.273,0.000,0
1595393585.277,24.414,-34.668,-19.531,-28.809,0.000,0
1595393585.281,-219.727,-34.180,-20.996,-32.715,0.000,0
1595393585.285,-98.145,-24.902,-20.020,-39.551,0.000,0
1595393585.289,180.664,-20.508,-17.578,-37.598,0.000,0
1595393585.293,119.141,-23.438,-21.484,-26.855,0.000,0
1595393585.297,-182.129,-35.645,-25.391,-30.762,0.000,0
1595393585.301,-172.852,-41.016,-26.855,-39.551,0.000,0
1595393585.304,132.812,-31.738,-21.484,-34.180,0.000,0
1595393585.308,181.641,-30.762,-15.625,-26.855,0.000,0
1595393585.312,-114.258,-38.086,-20.508,-30.762,0.000,0
1595393585.316,-217.285,-34.668,-22.461,-28.809,0.000,0
1595393585.320,56.641,-29.297,-21.484,-21.484,0.000,0
1595393585.324,213.867,-26.855,-15.625,-7.812,0.000,0
1595393585.328,-30.273,-35.156,-9.766,-2.930,0.000,0
1595393585.332,-233.887,-43.945,-6.836,-12.207,0.000,0
1595393585.336,-38.086,-39.062,-5.859,-25.391,0.000,0
1595393585.340,189.453,-34.180,-5.859,-25.879,0.000,0
1595393585.344,47.852,-35.156,-5.371,-12.695,0.000,0
1595393585.347,-200.684,-35.156,-10.254,-16.113,0.000,0
1595393585.351,-111.816,-36.133,-12.695,-30.762,0.000,0
1595393585.355,155.273,-39.551,-16.113,-28.320,0.000,0
1595393585.359,117.676,-37.109,-20.996,-20.996,0.000,0
1595393585.363,-177.734,-42.480,-27.344,-29.297,0.000,0
1595393585.367,-192.383,-42.480,-28.809,-38.086,0.000,0
1595393585.371,99.609,-36.621,-23.926,-38.086,0.000,0
1595393585.375,178.223,-35.156,-24.414,-23.926,0.000,0
1595393585.379,-87.891,-30.762,-20.996,-18.066,0.000,0
1595393585.383,-217.773,-31.738,-16.602,-25.879,0.000,0
1595393585.386,21.484,-36.133,-20.508,-31.250,0.000,0
1595393585.390,195.312,-37.598,-17.578,-28.809,0.000,0
1595393585.394,-8.301,-37.598,-11.719,-20.508,0.000,0
1595393585.398,-221.191,-40.039,-17.578,-28.320,0.000,0
1595393585.402,-63.477,-38.574,-21.973,-33.691,0.000,0
1595393585.406,171.387,-37.598,-22.461,-29.785,0.000,0
1595393585.410,56.641,-41.016,-23.438,-26.367,0.000,0
1595393585.414,-208.008,-42.480,-20.020,-27.344,0.000,0
1595393585.418,-141.602,-42.969,-15.625,-25.879,0.000,0
1595393585.422,146.484,-39.062,-10.254,-19.043,0.000,0
1595393585.426,137.695,-35.645,-12.207,-25.391,0.000,0
1595393585.429,-159.180,-42.969,-16.113,-24.414,0.000,0
1595393585.433,-203.613,-47.363,-15.137,-28.320,0.000,0
1595393585.437,86.426,-40.527,-11.719,-40.039,0.000,0
1595393585.441,180.664,-40.039,-10.742,-25.879,0.000,0
1595393585.445,-76.660,-44.434,-12.207,-10.742,0.000,0
1595393585.449,-215.820,-43.457,-15.137,-25.879,0.000,0
1595393585.453,9.766,-41.992,-18.066,-34.180,0.000,0
1595393585.457,196.289,-41.504,-17.090,-22.461,0.000,0
1595393585.461,1.465,-46.875,-17.578,-22.949,0.000,0
1595393585.465,-225.586,-44.922,-14.648,-27.832,0.000,0
1595393585.469,-76.660,-39.551,-14.160,-25.391,0.000,0
1595393585.472,186.523,-39.551,-15.625,-17.090,0.000,0
1595393585.476,84.961,-41.504,-22.461,-20.020,0.000,0
1595393585.480,-198.730,-47.363,-24.902,-25.879,0.000,0
1595393585.484,-159.668,-47.852,-20.508,-28.320,0.000,0
1595393585.488,127.441,-45.410,-20.020,-26.855,0.000,0
1595393585.492,142.090,-48.340,-18.066,-23.926,0.000,0
1595393585.496,-148.438,-49.316,-21.973,-22.461,0.000,0
1595393585.500,-221.191,-46.387,-22.949,-31.250,0.000,0
1595393585.504,53.711,-46.875,-19.531,-28.320,0.000,0
1595393585.508,183.105,-48.340,-20.020,-8.301,0.000,0
1595393585.511,-58.594,-48.340,-22.949,-15.625,0.000,0
1595393585.515,-224.121,-46.387,-22.949,-27.344,0.000,0
1595393585.519,-13.672,-41.992,-18.066,-22.461,0.000,0
1595393585.523,206.055,-34.668,-14.648,-15.625,0.000,0
1595393585.527,38.574,-31.738,-17.578,-11.719,0.000,0
1595393585.531,-209.961,-31.738,-22.461,-18.555,0.000,0
1595393585.535,-92.773,-35.156,-21.973,-23.438,0.000,0
1595393585.539,170.898,-37.109,-20.508,-14.648,0.000,0
1595393585.543,99.609,-36.621,-21.973,-11.230,0.000,0
1595393585.547,-186.035,-40.039,-19.043,-20.020,0.000,0
1595393585.551,-170.898,-42.480,-18.066,-21.973,0.000,0
1595393585.554,126.953,-42.969,-20.020,-18.555,0.000,0
1595393585.558,167.480,-40.527,-20.508,-15.625,0.000,0
1595393585.562,-121.582,-42.480,-19.531,-18.555,0.000,0
1595393585.566,-219.238,-44.434,-21.973,-28.320,0.000,0
1595393585.570,46.875,-38.086,-20.020,-29.785,0.000,0
1595393585.574,199.707,-35.156,-18.066,-19.043,0.000,0
1595393585.578,-20.996,-33.203,-18.555,-18.555,0.000,0
1595393585.582,-225.098,-33.691,-19.531,-27.344,0.000,0
1595393585.586,-54.199,-35.156,-19.531,-31.250,0.000,0
1595393585.590,195.312,-25.879,-13.184,-26.367,0.000,0
1595393585.594,57.129,-26.855,-11.719,-20.508,0.000,0
1595393585.597,-211.426,-36.621,-18.066,-23.926,0.000,0
1595393585.601,-115.234,-36.133,-18.555,-23.926,0.000,0
1595393585.605,167.480,-36.133,-19.531,-25.879,0.000,0
1595393585.609,125.000,-35.645,-24.414,-22.949,0.000,0
1595393585.613,-171.387,-34.668,-23.926,-23.438,0.000,0
1595393585.617,-191.406,-34.668,-21.484,-37.109,0.000,0
1595393585.621,96.191,-37.109,-18.555,-40.039,0.000,0
1595393585.625,170.898,-36.621,-15.625,-25.879,0.000,0
1595393585.629,-98.145,-36.621,-14.648,-24.414,0.000,0
1595393585.633,-228.516,-42.969,-17.578,-42.480,0.000,0
1595393585.636,20.996,-42.969,-17.090,-40.039,0.000,0
1595393585.640,201.172,-38.086,-15.625,-22.461,0.000,0
1595393585.644,-15.137,-42.480,-14.160,-19.043,0.000,0
1595393585.648,-239.746,-49.805,-17.578,-37.109,0.000,0
1595393585.652,-66.406,-41.504,-20.020,-41.992,0.000,0
1595393585.656,188.477,-31.250,-21.973,-28.809,0.000,0
1595393585.660,63.477,-36.133,-20.508,-28.320,0.000,0
1595393585.664,-224.609,-40.039,-17.578,-45.898,0.000,0
1595393585.668,-159.180,-36.621,-14.648,-54.688,0.000,0
1595393585.672,134.277,-36.621,-11.719,-43.945,0.000,0
1595393585.676,107.422,-45.410,-18.066,-42.969,0.000,0
1595393585.679,-187.988,-52.734,-20.996,-53.223,0.000,0
1595393585.683,-217.285,-48.828,-18.066,-55.176,0.000,0
1595393585.687,62.012,-42.480,-14.160,-43.457,0.000,0
1595393585.691,158.691,-37.109,-14.160,-36.133,0.000,0
1595393585.695,-94.727,-36.621,-18.555,-41.504,0.000,0
1595393585.699,-242.188,-38.086,-20.996,-52.734,0.000,0
1595393585.703,-17.578,-37.598,-18.555,-50.781,0.000,0
1595393585.707,176.758,-37.109,-16.113,-35.645,0.000,0
1595393585.711,2.930,-35.645,-16.113,-28.320,0.000,0
1595393585.715,-216.309,-35.645,-12.207,-34.180,0.000,0
1595393585.719,-76.172,-33.691,-6.836,-43.945,0.000,0
1595393585.722,173.828,-32.227,-6.348,-33.691,0.000,0
1595393585.726,81.543,-29.785,-8.301,-19.531,0.000,0
1595393585.730,-200.684,-31.250,-10.742,-26.855,0.000,0
1595393585.734,-161.621,-41.504,-11.230,-40.527,0.000,0
1595393585.738,129.883,-43.457,-11.719,-39.551,0.000,0
1595393585.742,142.578,-40.527,-15.137,-28.320,0.000,0
1595393585.746,-146.973,-42.969,-19.043,-31.250,0.000,0
1595393585.750,-217.285,-39.062,-12.207,-39.551,0.000,0
1595393585.754,64.453,-32.227,-6.348,-36.133,0.000,0
1595393585.758,196.289,-31.250,-5.859,-25.391,0.000,0
1595393585.761,-43.457,-28.320,-6.836,-25.879,0.000,0
1595393585.765,-223.145,-32.715,-4.883,-34.180,0.000,0
1595393585.769,-29.297,-38.086,-1.953,-37.598,0.000,0
1595393585.773,183.105,-36.133,-3.418,-32.227,0.000,0
1595393585.777,20.508,-40.527,-7.324,-23.926,0.000,0
1595393585.781,-228.027,-44.922,-13.184,-30.762,0.000,0
1595393585.785,-110.352,-41.016,-12.695,-40.527,0.000,0
1595393585.789,165.039,-39.551,-9.277,-30.762,0.000,0
1595393585.793,97.168,-45.410,-10.742,-14.160,0.000,0
1595393585.797,-194.336,-43.945,-15.625,-24.902,0.000,0
1595393585.801,-179.199,-38.086,-11.719,-40.527,0.000,0
1595393585.804,114.258,-39.062,-8.789,-29.785,0.000,0
1595393585.808,156.738,-40.527,-12.207,-20.508,0.000,0
1595393585.812,-124.512,-41.016,-17.578,-34.180,0.000,0
1595393585.816,-229.492,-38.574,-18.555,-42.969,0.000,0
1595393585.820,27.344,-38.086,-20.020,-36.133,0.000,0
1595393585.824,183.105,-33.203,-16.602,-25.391,0.000,0
1595393585.828,-37.598,-31.250,-13.672,-23.438,0.000,0
1595393585.832,-227.539,-35.156,-17.090,-29.297,0.000,0
1595393585.836,-42.480,-36.621,-15.625,-31.738,0.000,0
1595393585.840,184.082,-35.645,-16.602,-20.020,0.000,0
1595393585.844,37.109,-41.504,-19.043,-25.391,0.000,0
1595393585.847,-224.609,-42.480,-17.578,-45.898,0.000,0
1595393585.851,-125.000,-39.062,-15.625,-47.852,0.000,0
1595393585.855,167.480,-38.086,-15.137,-35.156,0.000,0
1595393585.859,128.906,-32.227,-13.184,-23.438,0.000,0
1595393585.863,-176.270,-29.785,-15.137,-28.320,0.000,0
1595393585.867,-193.848,-29.785,-17.578,-26.855,0.000,0
1595393585.871,100.586,-27.344,-7.812,-12.695,0.000,0
1595393585.875,176.758,-27.832,-3.906,-16.113,0.000,0
1595393585.879,-96.680,-33.691,-8.301,-26.367,0.000,0
1595393585.883,-221.191,-39.062,-11.230,-33.203,0.000,0
1595393585.886,24.902,-36.133,-12.695,-37.598,0.000,0
1595393585.890,191.895,-30.762,-13.672,-30.273,0.000,0
1595393585.894,-15.137,-32.227,-13.672,-21.973,0.000,0
1595393585.898,-224.121,-34.180,-10.254,-22.461,0.000,0
1595393585.902,-61.035,-28.320,-5.859,-28.809,0.000,0
1595393585.906,184.082,-28.809,-7.324,-25.391,0.000,0
1595393585.910,62.988,-36.133,-11.230,-17.578,0.000,0
1595393585.914,-205.566,-37.109,-10.254,-26.367,0.000,0
1595393585.918,-136.719,-34.180,-9.766,-32.715,0.000,0
1595393585.922,151.855,-30.273,-7.812,-24.902,0.000,0
1595393585.926,133.789,-29.297,-7.324,-19.043,0.000,0
1595393585.929,-160.645,-33.691,-15.625,-23.438,0.000,0
1595393585.933,-204.102,-35.645,-14.648,-35.156,0.000,0
1595393585.937,83.984,-36.621,-2.930,-23.438,0.000,0
1595393585.941,204.102,-32.715,0.488,1.465,0.000,0
1595393585.945,-62.500,-23.438,-7.812,-13.672,0.000,0
1595393585.949,-222.168,-13.184,-12.695,-44.434,0.000,0
1595393585.953,12.695,-8.301,-11.719,-43.945,0.000,0
1595393585.957,203.125,-8.301,-13.672,-31.250,0.000,0
1595393585.961,15.137,-6.836,-14.648,-28.320,0.000,0
1595393585.965,-210.938,-2.930,-10.742,-36.133,0.000,0
1595393585.969,-69.824,-3.418,-14.648,-45.410,0.000,0
1595393585.972,187.500,-8.301,-9.766,-40.527,0.000,0
1595393585.976,91.309,-6.836,-6.836,-25.879,0.000,0
1595393585.980,-187.988,-7.324,-14.648,-27.344,0.000,0
1595393585.984,-140.137,-9.766,-15.137,-33.691,0.000,0
1595393585.988,139.160,-16.113,-17.090,-35.645,0.000,0
1595393585.992,146.484,-18.555,-20.996,-30.762,0.000,0
1595393585.996,-122.070,-14.160,-17.578,-24.414,0.000,0
1595393586.000,-192.871,-15.625,-17.090,-26.367,0.000,0
1595393586.004,68.359,-20.508,-14.648,-24.902,0.000,0
1595393586.008,196.289,-20.508,-10.742,-21.484,0.000,0
1595393586.011,-42.480,-17.090,-10.254,-24.414,0.000,0
1595393586.015,-212.891,-22.949,-4.883,-33.691,0.000,0
1595393586.019,-5.859,-26.855,-1.465,-30.273,0.000,0
1595393586.023,196.289,-24.902,-6.836,-15.625,0.000,0
1595393586.027,21.484,-28.320,-7.812,-18.555,0.000,0
1595393586.031,-224.121,-27.832,-6.348,-26.855,0.000,0
1595393586.035,-110.352,-29.297,-12.207,-27.344,0.000,0
1595393586.039,157.715,-26.855,-16.113,-26.855,0.000,0
1595393586.043,104.004,-23.438,-13.184,-17.578,0.000,0
1595393586.047,-176.758,-28.320,-12.695,-24.414,0.000,0
1595393586.051,-168.457,-31.738,-12.695,-34.668,0.000,0
1595393586.054,126.465,-29.785,-10.742,-28.809,0.000,0
1595393586.058,169.434,-30.273,-9.277,-25.879,0.000,0
1595393586.062,-111.328,-32.227,-9.277,-23.926,0.000,0
1595393586.066,-199.707,-29.297,-10.254,-27.832,0.000,0
1595393586.070,61.035,-23.926,-6.836,-22.461,0.000,0
1595393586.074,199.707,-18.066,-5.371,-12.695,0.000,0
1595393586.078,-29.297,-20.996,-5.859,-7.812,0.000,0
1595393586.082,-214.844,-24.902,-8.301,-18.066,0.000,0
1595393586.086,-33.203,-21.484,-10.742,-35.156,0.000,0
1595393586.090,193.359,-21.484,-8.301,-23.438,0.000,0
1595393586.094,54.688,-23.438,-4.883,-14.160,0.000,0
1595393586.097,-200.684,-28.320,-6.836,-25.879,0.000,0
1595393586.101,-99.121,-32.227,-2.930,-27.832,0.000,0
1595393586.105,174.805,-31.250,-3.418,-13.184,0.000,0
1595393586.109,128.906,-29.297,-4.395,-6.348,0.000,0
1595393586.113,-165.527,-28.320,-2.441,-18.066,0.000,0
1595393586.117,-182.129,-34.668,-13.184,-28.809,0.000,0
1595393586.121,104.004,-36.133,-20.020,-31.738,0.000,0
1595393586.125,170.410,-27.344,-15.137,-20.996,0.000,0
1595393586.129,-94.727,-19.531,-11.719,-16.113,0.000,0
1595393586.133,-210.938,-21.973,-13.184,-22.949,0.000,0
1595393586.136,26.367,-26.855,-12.207,-22.461,0.000,0
1595393586.140,196.777,-26.855,-12.207,-15.137,0.000,0
1595393586.144,-1.465,-23.926,-11.230,-15.137,0.000,0
1595393586.148,-218.262,-22.949,-14.648,-25.391,0.000,0
1595393586.152,-53.711,-24.414,-14.648,-33.691,0.000,0
1595393586.156,192.871,-24.902,-10.742,-25.879,0.000,0
1595393586.160,68.848,-21.484,-16.113,-19.531,0.000,0
1595393586.164,-196.777,-26.367,-15.625,-24.902,0.000,0
1595393586.168,-128.906,-31.250,-14.648,-23.926,0.000,0
1595393586.172,155.762,-23.438,-13.672,-12.207,0.000,0
1595393586.176,145.508,-23.438,-10.742,-14.160,0.000,0
1595393586.179,-149.414,-33.691,-13.672,-29.785,0.000,0
1595393586.183,-194.824,-36.133,-23.438,-35.156,0.000,0
1595393586.187,95.215,-30.273,-26.367,-31.250,0.000,0
1595393586.191,187.012,-33.203,-21.973,-23.926,0.000,0
1595393586.195,-86.914,-32.227,-25.879,-28.320,0.000,0
1595393586.199,-228.516,-26.367,-25.879,-42.480,0.000,0
1595393586.203,3.906,-22.949,-19.043,-40.039,0.000,0
1595393586.207,197.754,-21.484,-18.555,-20.508,0.000,0
1595393586.211,15.137,-23.926,-20.508,-15.137,0.000,0
1595393586.215,-218.262,-21.973,-19.531,-26.367,0.000,0
1595393586.219,-79.102,-16.602,-18.555,-33.691,0.000,0
1595393586.222,190.430,-13.184,-22.461,-20.996,0.000,0
1595393586.226,96.191,-17.090,-31.738,-18.555,0.000,0
1595393586.230,-190.430,-24.414,-36.133,-36.621,0.000,0
1595393586.234,-146.484,-23.926,-36.621,-38.086,0.000,0
1595393586.238,144.043,-21.484,-34.668,-29.785,0.000,0
1595393586.242,157.715,-26.367,-32.715,-24.414,0.000,0
1595393586.246,-134.277,-32.227,-36.133,-32.715,0.000,0
1595393586.250,-201.172,-35.645,-39.551,-42.480,0.000,0
1595393586.254,80.566,-35.156,-38.086,-32.715,0.000,0
1595393586.258,192.383,-34.180,-35.156,-25.391,0.000,0
1595393586.261,-59.082,-30.762,-33.691,-28.809,0.000,0
1595393586.265,-224.609,-30.273,-35.156,-33.203,0.000,0
1595393586.269,-8.789,-29.297,-36.621,-33.691,0.000,0
1595393586.273,208.496,-25.391,-35.645,-13.672,0.000,0
1595393586.277,54.199,-25.879,-34.668,-8.301,0.000,0
1595393586.281,-188.477,-26.855,-33.203,-27.832,0.000,0
1595393586.285,-75.195,-28.809,-36.133,-37.109,0.000,0
1595393586.289,178.711,-31.250,-32.227,-26.367,0.000,0
1595393586.293,99.121,-33.203,-25.391,-21.484,0.000,0
1595393586.297,-181.152,-41.016,-22.949,-34.668,0.000,0
1595393586.301,-170.410,-42.480,-20.996,-40.527,0.000,0
1595393586.304,116.211,-39.062,-22.949,-33.203,0.000,0
1595393586.308,158.203,-41.992,-24.902,-29.297,0.000,0
1595393586.312,-116.211,-42.480,-30.273,-33.203,0.000,0
1595393586.316,-213.867,-38.574,-34.180,-36.133,0.000,0
1595393586.320,45.898,-38.086,-33.203,-30.762,0.000,0
1595393586.324,198.242,-38.574,-35.156,-32.715,0.000,0
1595393586.328,-27.832,-36.133,-36.133,-28.809,0.000,0
1595393586.332,-218.750,-39.551,-35.645,-34.180,0.000,0
1595393586.336,-31.250,-36.133,-29.297,-39.062,0.000,0
1595393586.340,198.242,-28.320,-25.879,-28.320,0.000,0
1595393586.344,57.617,-28.809,-27.344,-23.438,0.000,0
1595393586.347,-194.336,-32.227,-25.391,-29.785,0.000,0
1595393586.351,-108.887,-35.156,-23.438,-36.133,0.000,0
1595393586.355,156.738,-39.062,-22.949,-33.691,0.000,0
1595393586.359,110.840,-42.480,-22.461,-35.645,0.000,0
1595393586.363,-176.270,-42.480,-19.531,-36.621,0.000,0
1595393586.367,-187.988,-33.203,-17.578,-33.691,0.000,0
1595393586.371,98.633,-27.832,-21.973,-39.551,0.000,0
1595393586.375,172.363,-29.297,-21.973,-28.320,0.000,0
1595393586.379,-96.680,-28.809,-21.484,-29.297,0.000,0
1595393586.383,-214.844,-28.320,-26.367,-49.805,0.000,0
1595393586.386,41.504,-23.438,-20.508,-39.551,0.000,0
1595393586.390,213.867,-26.367,-14.648,-23.438,0.000,0
1595393586.394,-6.348,-29.785,-14.160,-20.996,0.000,0
1595393586.398,-225.586,-33.691,-11.719,-20.996,0.000,0
1595393586.402,-53.711,-36.621,-5.859,-23.926,0.000,0
1595393586.406,188.965,-41.504,-5.371,-21.973,0.000,0
1595393586.410,59.082,-46.875,-10.254,-20.020,0.000,0
1595393586.414,-199.707,-45.898,-15.625,-33.203,0.000,0
1595393586.418,-132.324,-43.457,-12.207,-41.016,0.000,0
1595393586.422,130.371,-40.039,-8.789,-33.691,0.000,0
1595393586.426,114.258,-35.156,-10.742,-25.391,0.000,0
1595393586.429,-161.621,-33.203,-5.859,-36.621,0.000,0
1595393586.433,-203.125,-31.738,-2.930,-45.898,0.000,0
1595393586.437,83.496,-33.203,-12.207,-39.551,0.000,0
1595393586.441,151.855,-34.180,-17.578,-31.250,0.000,0
1595393586.445,-130.371,-34.180,-17.090,-29.785,0.000,0
1595393586.449,-236.328,-34.668,-18.066,-31.738,0.000,0
1595393586.453,-0.977,-35.156,-16.602,-25.391,0.000,0
1595393586.457,179.199,-33.203,-15.137,-19.043,0.000,0
1595393586.461,-6.836,-29.785,-16.113,-22.949,0.000,0
1595393586.465,-229.492,-36.133,-14.648,-22.949,0.000,0
1595393586.469,-94.727,-42.480,-13.184,-27.832,0.000,0
1595393586.472,159.668,-43.945,-13.672,-27.344,0.000,0
1595393586.476,66.406,-44.434,-13.672,-19.531,0.000,0
1595393586.480,-205.078,-43.457,-16.113,-25.391,0.000,0
1595393586.484,-154.297,-34.180,-14.160,-29.785,0.000,0
1595393586.488,139.648,-29.297,-11.719,-25.879,0.000,0
1595393586.492,140.137,-33.691,-15.137,-23.926,0.000,0
1595393586.496,-153.809,-33.691,-18.066,-29.297,0.000,0
1595393586.500,-212.891,-29.297,-17.090,-32.715,0.000,0
1595393586.504,60.547,-23.438,-17.578,-40.039,0.000,0
1595393586.508,171.387,-25.879,-20.020,-36.133,0.000,0
1595393586.511,-75.195,-31.250,-15.137,-29.785,0.000,0
1595393586.515,-231.934,-30.273,-17.090,-35.156,0.000,0
1595393586.519,-20.996,-27.344,-22.949,-44.434,0.000,0
1595393586.523,186.523,-24.902,-20.020,-41.992,0.000,0
1595393586.527,26.855,-25.391,-20.508,-25.879,0.000,0
1595393586.531,-218.750,-25.391,-22.461,-30.762,0.000,0
1595393586.535,-101.074,-24.414,-16.602,-41.504,0.000,0
1595393586.539,171.387,-25.879,-13.184,-25.391,0.000,0
1595393586.543,94.727,-30.273,-17.090,-14.160,0.000,0
1595393586.547,-195.801,-29.297,-18.066,-22.461,0.000,0
1595393586.551,-173.340,-26.367,-14.648,-32.715,0.000,0
1595393586.554,114.746,-28.320,-15.625,-28.809,0.000,0
1595393586.558,154.297,-34.668,-15.625,-18.555,0.000,0
1595393586.562,-117.188,-38.574,-15.625,-27.832,0.000,0
1595393586.566,-207.520,-38.574,-11.719,-39.551,0.000,0
1595393586.570,41.016,-35.156,-9.766,-36.133,0.000,0
1595393586.574,180.664,-32.227,-13.184,-29.297,0.000,0
1595393586.578,-45.898,-32.227,-14.160,-23.438,0.000,0
1595393586.582,-237.305,-34.180,-14.160,-32.715,0.000,0
1595393586.586,-45.410,-35.156,-17.090,-43.945,0.000,0
1595393586.590,185.547,-31.250,-16.602,-29.297,0.000,0
1595393586.594,29.785,-33.203,-17.090,-20.508,0.000,0
1595393586.597,-232.910,-41.992,-19.043,-34.180,0.000,0
1595393586.601,-127.441,-38.574,-16.602,-41.016,0.000,0
1595393586.605,159.668,-28.320,-14.648,-30.762,0.000,0
1595393586.609,128.906,-20.508,-9.277,-20.508,0.000,0
1595393586.613,-160.645,-23.926,-11.230,-32.715,0.000,0
1595393586.617,-186.035,-27.344,-15.625,-44.434,0.000,0
1595393586.621,101.562,-20.020,-9.277,-33.691,0.000,0
1595393586.625,177.246,-20.996,-7.324,-23.438,0.000,0
1595393586.629,-98.145,-23.438,-14.160,-29.297,0.000,0
1595393586.633,-224.609,-22.949,-17.090,-38.086,0.000,0
1595393586.636,29.297,-20.996,-12.207,-39.062,0.000,0
1595393586.640,197.754,-21.484,-11.719,-33.203,0.000,0
1595393586.644,-19.531,-29.297,-14.648,-24.414,0.000,0
1595393586.648,-229.004,-37.598,-15.137,-26.367,0.000,0
1595393586.652,-64.941,-36.621,-12.207,-29.785,0.000,0
1595393586.656,176.270,-36.621,-11.719,-15.137,0.000,0
1595393586.660,55.176,-39.062,-13.184,-6.836,0.000,0
1595393586.664,-215.332,-37.598,-11.230,-29.297,0.000,0
1595393586.668,-136.230,-30.273,-5.371,-36.133,0.000,0
1595393586.672,151.855,-29.785,-7.324,-27.344,0.000,0
1595393586.676,128.418,-36.133,-15.625,-26.367,0.000,0
1595393586.679,-164.062,-37.598,-16.113,-29.297,0.000,0
1595393586.683,-208.984,-39.551,-20.508,-41.016,0.000,0
1595393586.687,72.266,-35.156,-20.996,-39.551,0.000,0
1595393586.691,175.781,-33.203,-20.020,-25.879,0.000,0
1595393586.695,-80.566,-39.062,-23.438,-30.273,0.000,0
1595393586.699,-226.562,-37.598,-20.508,-42.480,0.000,0
1595393586.703,2.441,-34.668,-19.043,-37.598,0.000,0
1595393586.707,189.453,-38.086,-16.602,-24.902,0.000,0
1595393586.711,-1.953,-42.480,-16.113,-26.855,0.000,0
1595393586.715,-224.609,-45.410,-20.996,-32.715,0.000,0
1595393586.719,-80.078,-44.434,-24.902,-35.645,0.000,0
1595393586.722,163.574,-44.434,-24.902,-31.250,0.000,0
1595393586.726,71.289,-43.945,-23.926,-23.438,0.000,0
1595393586.730,-199.219,-42.480,-24.414,-36.133,0.000,0
1595393586.734,-153.809,-38.086,-19.531,-49.805,0.000,0
1595393586.738,132.812,-35.645,-16.602,-33.203,0.000,0
1595393586.742,140.137,-29.297,-18.555,-24.414,0.000,0
1595393586.746,-138.672,-24.414,-20.020,-40.527,0.000,0
1595393586.750,-208.496,-30.273,-21.973,-48.828,0.000,0
1595393586.754,55.664,-31.250,-23.438,-48.340,0.000,0
1595393586.758,178.711,-28.809,-21.973,-30.762,0.000,0
1595393586.761,-63.477,-31.738,-20.020,-22.949,0.000,0
1595393586.765,-229.492,-35.156,-19.043,-43.457,0.000,0
1595393586.769,-27.344,-29.785,-15.137,-51.270,0.000,0
1595393586.773,181.641,-23.926,-13.672,-33.691,0.000,0
1595393586.777,30.762,-24.414,-15.625,-30.762,0.000,0
1595393586.781,-211.426,-25.391,-17.578,-41.504,0.000,0
1595393586.785,-110.840,-29.785,-21.973,-44.434,0.000,0
1595393586.789,155.762,-34.180,-26.855,-47.363,0.000,0
1595393586.793,101.562,-35.645,-22.949,-41.016,0.000,0
1595393586.797,-181.152,-37.598,-14.648,-39.551,0.000,0
1595393586.801,-169.922,-34.668,-6.836,-44.922,0.000,0
1595393586.804,119.141,-32.715,-7.324,-42.969,0.000,0
1595393586.808,161.133,-35.645,-9.766,-35.645,0.000,0
1595393586.812,-115.723,-37.598,-9.766,-25.879,0.000,0
1595393586.816,-216.797,-41.016,-15.625,-41.016,0.000,0
1595393586.820,42.480,-36.621,-15.625,-41.992,0.000,0
1595393586.824,194.824,-31.738,-14.160,-18.555,0.000,0
1595393586.828,-31.738,-37.598,-16.113,-10.254,0.000,0
1595393586.832,-216.309,-39.551,-11.719,-15.137,0.000,0
1595393586.836,-20.996,-33.691,-7.324,-21.973,0.000,0
1595393586.840,200.195,-30.273,-10.254,-20.020,0.000,0
1595393586.844,53.223,-28.320,-9.766,-21.484,0.000,0
1595393586.847,-204.102,-30.273,-9.277,-31.250,0.000,0
1595393586.851,-119.629,-34.180,-10.742,-37.109,0.000,0
1595393586.855,158.203,-35.156,-11.719,-24.902,0.000,0
1595393586.859,120.605,-30.762,-13.672,-20.508,0.000,0
1595393586.863,-166.016,-33.691,-16.113,-34.668,0.000,0
1595393586.867,-177.734,-38.574,-20.508,-42.480,0.000,0
1595393586.871,108.887,-36.621,-17.090,-33.691,0.000,0
1595393586.875,172.852,-31.738,-14.648,-25.391,0.000,0
1595393586.879,-100.098,-26.855,-20.020,-35.156,0.000,0
1595393586.883,-220.703,-31.738,-24.902,-42.480,0.000,0
1595393586.886,23.438,-31.250,-25.391,-41.016,0.000,0
1595393586.890,192.871,-30.273,-22.461,-31.738,0.000,0
1595393586.894,-16.113,-29.297,-18.555,-34.668,0.000,0
1595393586.898,-231.445,-30.273,-19.043,-48.340,0.000,0
1595393586.902,-68.359,-33.203,-19.043,-41.992,0.000,0
1595393586.906,168.457,-31.250,-18.066,-39.551,0.000,0
1595393586.910,47.852,-34.668,-20.996,-42.480,0.000,0
1595393586.914,-218.262,-38.086,-17.578,-44.922,0.000,0
1595393586.918,-149.414,-35.156,-14.160,-41.016,0.000,0
1595393586.922,144.531,-27.344,-10.254,-30.273,0.000,0
1595393586.926,130.859,-22.949,-6.348,-28.320,0.000,0
1595393586.929,-157.715,-25.391,-9.277,-33.691,0.000,0
1595393586.933,-188.965,-21.973,-10.254,-46.387,0.000,0
1595393586.937,94.727,-18.555,-9.277,-50.781,0.000,0
1595393586.941,178.711,-24.902,-10.254,-40.527,0.000,0
1595393586.945,-94.238,-35.645,-15.137,-34.668,0.000,0
1595393586.949,-232.910,-38.086,-19.531,-45.898,0.000,0
1595393586.953,-3.418,-36.621,-19.043,-44.434,0.000,0
1595393586.957,180.664,-29.785,-13.672,-32.227,0.000,0
1595393586.961,0.000,-28.320,-13.672,-29.785,0.000,0
1595393586.965,-218.750,-29.297,-15.137,-33.691,0.000,0
1595393586.969,-69.824,-24.414,-10.742,-38.086,0.000,0
1595393586.972,186.035,-21.484,-11.230,-38.086,0.000,0
1595393586.976,83.008,-20.508,-11.719,-24.414,0.000,0
1595393586.980,-190.430,-21.973,-10.742,-26.855,0.000,0
1595393586.984,-148.438,-20.996,-12.695,-41.016,0.000,0
1595393586.988,143.066,-20.996,-13.184,-30.762,0.000,0
1595393586.992,153.320,-21.973,-11.719,-17.578,0.000,0
1595393586.996,-150.391,-26.367,-16.602,-21.484,0.000,0
1595393587.000,-218.262,-22.949,-21.973,-34.180,0.000,0
1595393587.004,62.500,-13.672,-19.531,-28.809,0.000,0
1595393587.008,176.758,-19.531,-17.578,-23.926,0.000,0
1595393587.011,-73.242,-27.832,-22.461,-35.156,0.000,0
1595393587.015,-232.910,-27.344,-25.391,-38.086,0.000,0
1595393587.019,-17.578,-24.902,-18.066,-29.785,0.000,0
1595393587.023,190.918,-27.832,-17.090,-25.391,0.000,0
1595393587.027,25.879,-28.320,-18.066,-26.855,0.000,0
1595393587.031,-214.844,-21.973,-16.113,-33.691,0.000,0
1595393587.035,-86.426,-20.508,-20.996,-35.156,0.000,0
1595393587.039,184.570,-18.555,-24.902,-19.043,0.000,0
1595393587.043,108.398,-18.555,-20.508,-7.324,0.000,0
1595393587.047,-174.316,-20.508,-18.555,-23.926,0.000,0
1595393587.051,-162.598,-21.484,-20.996,-32.227,0.000,0
1595393587.054,119.141,-23.438,-17.578,-22.949,0.000,0
1595393587.058,150.879,-23.926,-22.949,-18.066,0.000,0
1595393587.062,-122.559,-26.855,-25.391,-22.949,0.000,0
1595393587.066,-208.496,-26.855,-18.555,-35.156,0.000,0
1595393587.070,42.480,-25.879,-18.066,-34.180,0.000,0
1595393587.074,191.895,-20.508,-15.137,-20.508,0.000,0
1595393587.078,-28.809,-21.484,-11.230,-12.695,0.000,0
1595393587.082,-225.586,-27.344,-12.695,-21.973,0.000,0
1595393587.086,-38.574,-24.902,-16.113,-27.344,0.000,0
1595393587.090,188.965,-19.531,-13.184,-18.555,0.000,0
1595393587.094,44.922,-22.949,-9.277,-12.695,0.000,0
1595393587.097,-200.684,-30.762,-11.719,-18.066,0.000,0
1595393587.101,-111.328,-28.320,-15.137,-33.203,0.000,0
1595393587.105,152.344,-24.902,-13.672,-33.691,0.000,0
1595393587.109,117.188,-25.391,-9.766,-21.484,0.000,0
1595393587.113,-176.758,-37.109,-15.625,-29.785,0.000,0
1595393587.117,-193.359,-41.016,-22.949,-42.480,0.000,0
1595393587.121,104.492,-30.762,-22.949,-35.156,0.000,0
1595393587.125,175.293,-27.832,-13.184,-15.137,0.000,0
1595393587.129,-104.004,-29.785,-13.184,-12.207,0.000,0
1595393587.133,-226.074,-31.738,-22.461,-29.785,0.000,0
1595393587.136,31.738,-27.344,-16.113,-26.367,0.000,0
1595393587.140,200.684,-26.367,-12.207,-12.695,0.000,0
1595393587.144,-15.137,-31.250,-14.648,-12.695,0.000,0
1595393587.148,-215.332,-32.715,-14.648,-23.438,0.000,0
1595393587.152,-50.781,-26.367,-13.184,-36.133,0.000,0
1595393587.156,183.594,-25.879,-10.254,-25.391,0.000,0
1595393587.160,73.242,-30.273,-8.789,-13.672,0.000,0
1595393587.164,-187.500,-31.250,-12.207,-23.438,0.000,0
1595393587.168,-118.164,-29.297,-11.230,-27.344,0.000,0
1595393587.172,156.250,-31.738,-13.184,-25.391,0.000,0
1595393587.176,134.766,-38.086,-18.066,-15.137,0.000,0
1595393587.179,-142.578,-33.691,-17.090,-9.766,0.000,0
1595393587.183,-186.035,-29.785,-18.555,-23.926,0.000,0
1595393587.187,84.961,-26.367,-17.090,-27.832,0.000,0
1595393587.191,179.688,-20.508,-15.625,-19.043,0.000,0
1595393587.195,-75.684,-23.438,-14.648,-18.066,0.000,0
1595393587.199,-214.844,-27.832,-14.648,-28.809,0.000,0
1595393587.203,6.836,-27.344,-12.207,-29.297,0.000,0
1595393587.207,191.895,-25.879,-7.812,-15.137,0.000,0
1595393587.211,14.160,-23.926,-3.418,-16.602,0.000,0
1595393587.215,-204.590,-30.273,-3.906,-24.902,0.000,0
1595393587.219,-58.105,-35.156,-4.395,-27.344,0.000,0
1595393587.222,194.824,-27.832,1.953,-12.695,0.000,0
1595393587.226,84.473,-24.902,1.465,-6.836,0.000,0
1595393587.230,-204.590,-31.250,-6.348,-24.414,0.000,0
1595393587.234,-160.156,-31.738,-7.812,-36.133,0.000,0
1595393587.238,126.465,-29.785,-9.766,-36.621,0.000,0
1595393587.242,139.160,-28.809,-14.648,-23.438,0.000,0
1595393587.246,-137.695,-29.297,-15.137,-17.578,0.000,0
1595393587.250,-204.102,-36.621,-17.090,-32.715,0.000,0
1595393587.254,64.941,-34.180,-9.277,-35.156,0.000,0
1595393587.258,191.406,-29.785,-2.930,-24.902,0.000,0
1595393587.261,-54.688,-30.762,-5.371,-25.879,0.000,0
1595393587.265,-227.051,-32.715,-0.977,-38.574,0.000,0
1595393587.269,-23.926,-37.598,-4.395,-43.945,0.000,0
1595393587.273,177.734,-39.062,-10.254,-39.062,0.000,0
1595393587.277,16.602,-36.133,-9.277,-36.133,0.000,0
1595393587.281,-217.773,-38.086,-7.324,-37.598,0.000,0
1595393587.285,-94.727,-37.598,-4.883,-41.504,0.000,0
1595393587.289,169.922,-34.180,-8.301,-38.574,0.000,0
1595393587.293,92.285,-37.598,-12.695,-28.320,0.000,0
1595393587.297,-191.895,-33.691,-11.719,-25.879,0.000,0
1595393587.301,-168.945,-30.762,-8.301,-37.598,0.000,0
1595393587.304,126.465,-28.320,-9.277,-31.250,0.000,0
1595393587.308,162.598,-25.879,-13.184,-25.391,0.000,0
1595393587.312,-120.605,-28.809,-12.207,-38.574,0.000,0
1595393587.316,-215.820,-29.297,-13.184,-47.852,0.000,0
1595393587.320,45.410,-33.691,-12.695,-38.086,0.000,0
1595393587.324,191.406,-39.062,-12.207,-24.902,0.000,0
1595393587.328,-31.738,-41.504,-15.137,-29.297,0.000,0
1595393587.332,-219.727,-41.992,-18.066,-36.621,0.000,0
1595393587.336,-41.504,-41.992,-19.531,-38.086,0.000,0
1595393587.340,177.734,-39.062,-18.555,-24.414,0.000,0
1595393587.344,37.109,-32.227,-20.020,-20.020,0.000,0
1595393587.347,-215.332,-34.668,-18.555,-40.527,0.000,0
1595393587.351,-115.234,-32.227,-18.066,-52.246,0.000,0
1595393587.355,155.273,-30.273,-24.414,-47.852,0.000,0
1595393587.359,105.957,-30.762,-20.508,-37.109,0.000,0
1595393587.363,-180.176,-30.762,-17.090,-41.016,0.000,0
1595393587.367,-199.707,-35.156,-20.508,-59.082,0.000,0
1595393587.371,86.426,-32.715,-21.484,-55.664,0.000,0
1595393587.375,152.832,-31.738,-22.949,-35.156,0.000,0
1595393587.379,-106.934,-31.738,-20.996,-30.273,0.000,0
1595393587.383,-217.773,-30.762,-20.508,-36.133,0.000,0
1595393587.386,24.414,-28.320,-20.020,-34.668,0.000,0
1595393587.390,191.895,-23.926,-9.277,-25.879,0.000,0
1595393587.394,-20.020,-28.320,-5.371,-27.344,0.000,0
1595393587.398,-220.215,-36.621,-10.742,-26.855,0.000,0
1595393587.402,-57.617,-36.133,-10.742,-27.832,0.000,0
1595393587.406,171.387,-35.156,-11.230,-36.621,0.000,0
1595393587.410,57.617,-36.621,-9.766,-25.391,0.000,0
1595393587.414,-199.707,-38.574,-9.277,-24.414,0.000,0
1595393587.418,-130.859,-41.016,-20.020,-40.039,0.000,0
1595393587.422,149.902,-39.062,-22.949,-34.668,0.000,0
1595393587.426,120.605,-41.016,-20.996,-24.902,0.000,0
1595393587.429,-173.340,-44.922,-20.020,-29.785,0.000,0
1595393587.433,-199.219,-39.551,-15.137,-33.691,0.000,0
1595393587.437,87.402,-29.297,-11.230,-33.203,0.000,0
1595393587.441,181.152,-27.832,-11.230,-28.320,0.000,0
1595393587.445,-75.684,-29.785,-9.277,-23.926,0.000,0
1595393587.449,-221.191,-26.855,-6.348,-36.133,0.000,0
1595393587.453,5.371,-22.949,-7.812,-39.551,0.000,0
1595393587.457,190.430,-22.949,-8.789,-22.461,0.000,0
1595393587.461,0.000,-20.996,-10.254,-20.996,0.000,0
1595393587.465,-215.332,-20.508,-11.230,-33.691,0.000,0
1595393587.469,-74.707,-26.855,-17.578,-32.227,0.000,0
1595393587.472,168.457,-26.367,-21.484,-30.762,0.000,0
1595393587.476,76.660,-21.973,-17.090,-25.879,0.000,0
1595393587.480,-192.383,-22.949,-13.672,-31.738,0.000,0
1595393587.484,-142.090,-26.367,-10.254,-37.109,0.000,0
1595393587.488,146.484,-33.203,-11.719,-22.949,0.000,0
1595393587.492,152.832,-31.738,-10.254,-17.578,0.000,0
1595393587.496,-135.742,-35.156,-10.254,-20.996,0.000,0
1595393587.500,-201.660,-40.039,-13.184,-35.156,0.000,0
1595393587.504,62.988,-34.668,-9.277,-39.551,0.000,0
1595393587.508,179.688,-32.227,-7.324,-17.578,0.000,0
1595393587.511,-53.711,-29.297,-8.789,-16.602,0.000,0
1595393587.515,-213.867,-28.320,-9.766,-25.879,0.000,0
1595393587.519,-7.812,-27.344,-10.742,-31.250,0.000,0
1595393587.523,196.777,-25.879,-13.672,-27.832,0.000,0
1595393587.527,27.832,-25.879,-10.742,-23.926,0.000,0
1595393587.531,-222.168,-32.715,-8.301,-32.227,0.000,0
1595393587.535,-105.469,-37.598,-8.301,-38.086,0.000,0
1595393587.539,158.203,-32.227,-7.812,-37.109,0.000,0
1595393587.543,83.984,-29.297,-8.789,-31.250,0.000,0
1595393587.547,-193.359,-28.809,-12.207,-42.969,0.000,0
1595393587.551,-172.852,-29.785,-18.555,-51.270,0.000,0
1595393587.554,110.352,-32.715,-19.043,-47.363,0.000,0
1595393587.558,146.973,-36.621,-19.043,-41.016,0.000,0
1595393587.562,-125.977,-41.016,-23.438,-41.992,0.000,0
1595393587.566,-210.938,-38.086,-21.973,-53.223,0.000,0
1595393587.570,41.504,-33.203,-16.113,-56.152,0.000,0
1595393587.574,179.688,-34.668,-14.648,-43.457,0.000,0
1595393587.578,-41.992,-41.016,-18.555,-30.762,0.000,0
1595393587.582,-225.586,-33.203,-18.066,-33.203,0.000,0
1595393587.586,-38.086,-27.344,-12.695,-36.621,0.000,0
1595393587.590,178.711,-30.273,-15.625,-25.879,0.000,0
1595393587.594,31.250,-25.391,-20.020,-19.531,0.000,0
1595393587.597,-206.543,-22.949,-23.438,-22.949,0.000,0
1595393587.601,-102.539,-18.555,-21.973,-24.902,0.000,0
1595393587.605,159.668,-14.160,-17.090,-12.695,0.000,0
1595393587.609,116.211,-16.602,-13.672,-5.859,0.000,0
1595393587.613,-166.016,-24.902,-14.160,-25.879,0.000,0
1595393587.617,-177.246,-27.832,-14.160,-34.180,0.000,0
1595393587.621,108.887,-24.902,-11.230,-21.973,0.000,0
1595393587.625,173.340,-21.484,-9.277,-15.625,0.000,0
1595393587.629,-102.539,-15.137,-9.277,-26.855,0.000,0
1595393587.633,-220.215,-16.602,-10.254,-38.086,0.000,0
1595393587.636,26.367,-24.902,-14.160,-32.715,0.000,0
1595393587.640,190.430,-26.367,-18.555,-29.785,0.000,0
1595393587.644,-19.043,-25.879,-17.578,-30.273,0.000,0
1595393587.648,-223.633,-30.762,-16.602,-31.250,0.000,0
1595393587.652,-58.594,-31.250,-19.043,-35.645,0.000,0
1595393587.656,174.805,-36.133,-21.484,-30.762,0.000,0
1595393587.660,45.410,-36.621,-24.414,-37.598,0.000,0
1595393587.664,-217.285,-31.250,-20.996,-49.805,0.000,0
1595393587.668,-143.066,-36.133,-20.020,-51.758,0.000,0
1595393587.672,138.672,-37.598,-23.926,-46.875,0.000,0
1595393587.676,124.023,-35.156,-22.461,-32.227,0.000,0
1595393587.679,-164.062,-36.621,-21.973,-27.344,0.000,0
1595393587.683,-197.754,-38.086,-19.043,-32.715,0.000,0
1595393587.687,89.844,-35.645,-13.184,-21.973,0.000,0
1595393587.691,183.105,-32.715,-14.160,-10.742,0.000,0
1595393587.695,-78.613,-30.762,-14.648,-20.020,0.000,0
1595393587.699,-218.750,-33.203,-16.113,-27.832,0.000,0
1595393587.703,7.324,-33.203,-18.555,-23.926,0.000,0
1595393587.707,181.641,-29.785,-19.531,-20.508,0.000,0
1595393587.711,-3.906,-31.738,-20.020,-20.996,0.000,0
1595393587.715,-219.727,-35.156,-19.043,-19.043,0.000,0
1595393587.719,-73.242,-28.809,-15.625,-22.461,0.000,0
1595393587.722,182.129,-24.414,-6.836,-15.625,0.000,0
1595393587.726,79.102,-28.320,-5.859,-4.395,0.000,0
1595393587.730,-195.801,-33.203,-12.207,-19.531,0.000,0
1595393587.734,-146.973,-30.762,-12.207,-36.621,0.000,0
1595393587.738,140.625,-23.438,-8.789,-29.785,0.000,0
1595393587.742,153.809,-24.902,-9.766,-19.043,0.000,0
1595393587.746,-120.117,-29.297,-14.160,-20.996,0.000,0
1595393587.750,-192.871,-27.344,-10.742,-25.391,0.000,0
1595393587.754,64.941,-27.344,-4.395,-15.625,0.000,0
1595393587.758,187.500,-25.879,-3.906,-7.812,0.000,0
1595393587.761,-55.176,-30.762,-11.719,-21.973,0.000,0
1595393587.765,-214.355,-37.598,-17.090,-35.156,0.000,0
1595393587.769,-14.648,-37.109,-20.996,-35.156,0.000,0
1595393587.773,176.758,-33.691,-23.926,-21.973,0.000,0
1595393587.777,18.066,-35.156,-25.391,-20.508,0.000,0
1595393587.781,-208.984,-35.645,-25.879,-32.715,0.000,0
1595393587.785,-88.379,-31.738,-21.484,-40.527,0.000,0
1595393587.789,178.711,-25.879,-14.160,-29.297,0.000,0
1595393587.793,99.609,-31.250,-19.043,-25.391,0.000,0
1595393587.797,-187.012,-34.668,-23.438,-34.180,0.000,0
1595393587.801,-171.875,-35.156,-22.949,-41.992,0.000,0
1595393587.804,111.328,-32.227,-20.020,-35.645,0.000,0
1595393587.808,159.180,-28.320,-18.066,-26.855,0.000,0
1595393587.812,-114.746,-32.227,-21.973,-33.203,0.000,0
1595393587.816,-215.820,-35.156,-24.902,-42.969,0.000,0
1595393587.820,35.645,-34.668,-22.461,-43.457,0.000,0
1595393587.824,184.570,-29.785,-18.066,-26.855,0.000,0
1595393587.828,-36.133,-29.297,-20.508,-18.555,0.000,0
1595393587.832,-219.238,-34.180,-21.973,-33.203,0.000,0
1595393587.836,-30.273,-33.203,-15.625,-35.156,0.000,0
1595393587.840,196.777,-23.438,-8.301,-20.996,0.000,0
1595393587.844,61.035,-27.832,-10.254,-16.602,0.000,0
1595393587.847,-197.266,-35.156,-11.230,-28.320,0.000,0
1595393587.851,-117.676,-34.180,-9.766,-37.109,0.000,0
1595393587.855,151.367,-33.203,-9.766,-25.879,0.000,0
1595393587.859,115.723,-29.297,-6.836,-18.555,0.000,0
1595393587.863,-161.133,-27.832,-10.742,-24.902,0.000,0
1595393587.867,-175.781,-29.785,-18.066,-30.273,0.000,0
1595393587.871,111.328,-25.391,-17.090,-25.391,0.000,0
1595393587.875,176.270,-29.297,-18.066,-18.555,0.000,0
1595393587.879,-97.656,-39.062,-24.414,-18.066,0.000,0
1595393587.883,-206.055,-35.645,-25.391,-22.949,0.000,0
1595393587.886,39.551,-33.203,-20.020,-16.113,0.000,0
1595393587.890,200.684,-33.203,-14.160,-7.812,0.000,0
1595393587.894,-6.348,-31.250,-9.766,-9.766,0.000,0
1595393587.898,-214.355,-36.621,-9.766,-15.625,0.000,0
1595393587.902,-51.270,-37.598,-16.113,-25.391,0.000,0
1595393587.906,188.477,-33.203,-16.602,-15.137,0.000,0
1595393587.910,73.730,-34.180,-17.578,-1.953,0.000,0
1595393587.914,-188.965,-29.297,-24.414,-16.113,0.000,0
1595393587.918,-121.582,-26.367,-24.902,-25.879,0.000,0
1595393587.922,159.180,-27.832,-18.555,-14.160,0.000,0
1595393587.926,145.020,-24.414,-9.766,-3.418,0.000,0
1595393587.929,-140.625,-26.855,-10.742,-10.254,0.000,0
1595393587.933,-175.781,-29.297,-16.113,-23.926,0.000,0
1595393587.937,101.074,-24.414,-13.184,-16.113,0.000,0
1595393587.941,198.242,-20.020,-10.742,-3.418,0.000,0
1595393587.945,-58.594,-20.996,-10.742,-13.672,0.000,0
1595393587.949,-205.566,-20.020,-11.230,-20.020,0.000,0
1595393587.953,18.555,-18.066,-12.207,-11.230,0.000,0
1595393587.957,196.289,-19.531,-11.230,-8.301,0.000,0
1595393587.961,8.789,-21.973,-9.277,-15.625,0.000,0
1595393587.965,-214.844,-24.902,-10.742,-21.484,0.000,0
1595393587.969,-77.637,-25.391,-13.672,-29.297,0.000,0
1595393587.972,175.293,-20.996,-13.672,-28.809,0.000,0
1595393587.976,83.984,-20.996,-14.160,-19.531,0.000,0
1595393587.980,-185.059,-28.320,-22.949,-26.855,0.000,0
1595393587.984,-136.719,-27.832,-28.320,-36.621,0.000,0
1595393587.988,137.207,-22.461,-27.832,-34.180,0.000,0
1595393587.992,137.695,-25.391,-31.738,-22.949,0.000,0
1595393587.996,-141.113,-36.621,-36.133,-22.461,0.000,0
1595393588.000,-200.195,-38.086,-35.156,-27.832,0.000,0
1595393588.004,73.730,-29.785,-26.855,-30.762,0.000,0
1595393588.008,195.312,-24.902,-23.926,-21.484,0.000,0
1595393588.011,-46.387,-26.367,-30.273,-14.160,0.000,0
1595393588.015,-209.961,-30.762,-33.203,-28.809,0.000,0
1595393588.019,-8.301,-33.203,-29.785,-37.598,0.000,0
1595393588.023,190.430,-26.855,-26.367,-27.344,0.000,0
1595393588.027,24.414,-26.367,-27.344,-24.414,0.000,0
1595393588.031,-215.332,-30.273,-29.297,-30.273,0.000,0
1595393588.035,-98.633,-30.762,-28.809,-34.180,0.000,0
1595393588.039,157.227,-26.367,-30.273,-25.879,0.000,0
1595393588.043,91.309,-21.973,-30.273,-11.719,0.000,0
1595393588.047,-178.711,-23.438,-25.879,-16.602,0.000,0
1595393588.051,-171.387,-24.414,-27.344,-35.156,0.000,0
1595393588.054,107.910,-27.344,-27.344,-25.879,0.000,0
1595393588.058,149.902,-29.297,-25.879,-12.695,0.000,0
1595393588.062,-125.000,-34.180,-25.879,-22.461,0.000,0
1595393588.066,-215.332,-34.668,-28.320,-31.738,0.000,0
1595393588.070,45.410,-27.344,-27.344,-22.461,0.000,0
1595393588.074,195.312,-20.508,-20.508,-10.254,0.000,0
1595393588.078,-33.203,-19.531,-20.508,-17.578,0.000,0
1595393588.082,-223.633,-32.715,-32.715,-34.668,0.000,0
1595393588.086,-38.574,-38.086,-32.715,-39.062,0.000,0
1595393588.090,175.781,-37.109,-26.855,-25.391,0.000,0
1595393588.094,33.691,-38.086,-30.273,-24.902,0.000,0
1595393588.097,-218.262,-37.598,-32.715,-43.945,0.000,0
1595393588.101,-127.930,-41.016,-32.227,-47.363,0.000,0
1595393588.105,159.180,-40.527,-24.414,-29.297,0.000,0
1595393588.109,125.488,-39.062,-18.066,-15.625,0.000,0
1595393588.113,-163.574,-39.062,-21.973,-20.020,0.000,0
1595393588.117,-182.617,-36.621,-21.484,-39.551,0.000,0
1595393588.121,86.914,-29.785,-23.926,-45.410,0.000,0
1595393588.125,150.391,-25.391,-29.785,-40.527,0.000,0
1595393588.129,-108.398,-27.832,-27.344,-38.086,0.000,0
1595393588.133,-229.004,-37.598,-23.438,-41.016,0.000,0
1595393588.136,5.371,-37.109,-17.578,-50.781,0.000,0
1595393588.140,170.898,-28.809,-7.812,-41.016,0.000,0
1595393588.144,-39.551,-35.645,-17.578,-42.480,0.000,0
1595393588.148,-249.512,-36.133,-25.391,-49.805,0.000,0
1595393588.152,-77.148,-29.785,-21.973,-41.504,0.000,0
1595393588.156,173.340,-28.320,-21.484,-32.227,0.000,0
1595393588.160,64.453,-28.320,-24.902,-33.203,0.000,0
1595393588.164,-195.801,-29.297,-21.484,-34.668,0.000,0
1595393588.168,-130.371,-26.367,-14.160,-29.785,0.000,0
1595393588.172,154.297,-24.902,-13.672,-36.621,0.000,0
1595393588.176,142.578,-28.809,-14.160,-33.691,0.000,0
1595393588.179,-143.555,-38.574,-16.113,-25.879,0.000,0
1595393588.183,-180.176,-41.016,-17.090,-36.133,0.000,0
1595393588.187,90.820,-30.762,-13.672,-36.133,0.000,0
1595393588.191,177.246,-26.855,-9.766,-29.785,0.000,0
1595393588.195,-78.125,-30.273,-15.625,-28.320,0.000,0
1595393588.199,-215.820,-28.809,-20.996,-37.109,0.000,0
1595393588.203,11.230,-29.785,-18.066,-38.574,0.000,0
1595393588.207,187.500,-32.715,-19.043,-31.738,0.000,0
1595393588.211,-0.977,-32.715,-23.438,-33.691,0.000,0
1595393588.215,-221.680,-35.156,-26.855,-38.086,0.000,0
1595393588.219,-71.289,-34.668,-27.344,-35.645,0.000,0
1595393588.222,161.621,-31.250,-23.926,-24.902,0.000,0
1595393588.226,62.500,-30.273,-20.996,-10.742,0.000,0
1595393588.230,-179.688,-38.574,-27.344,-18.555,0.000,0
1595393588.234,-142.578,-40.527,-29.297,-24.902,0.000,0
1595393588.238,140.625,-34.180,-24.414,-11.230,0.000,0
1595393588.242,147.949,-32.227,-22.949,-8.301,0.000,0
1595393588.246,-139.648,-32.715,-29.297,-21.484,0.000,0
1595393588.250,-206.055,-34.668,-35.156,-33.203,0.000,0
1595393588.254,59.082,-33.203,-29.785,-34.180,0.000,0
1595393588.258,184.570,-24.902,-24.902,-30.762,0.000,0
1595393588.261,-54.688,-23.926,-20.996,-28.809,0.000,0
1595393588.265,-215.820,-29.297,-20.508,-24.414,0.000,0
1595393588.269,-13.672,-29.785,-24.414,-33.691,0.000,0
1595393588.273,182.617,-33.691,-25.879,-39.062,0.000,0
1595393588.277,20.996,-37.598,-21.973,-29.297,0.000,0
1595393588.281,-214.844,-35.645,-20.508,-34.180,0.000,0
1595393588.285,-94.238,-33.691,-21.484,-41.504,0.000,0
1595393588.289,170.410,-27.344,-17.578,-34.180,0.000,0
1595393588.293,104.980,-23.926,-13.184,-23.926,0.000,0
1595393588.297,-181.152,-30.762,-20.020,-39.062,0.000,0
1595393588.301,-172.363,-30.273,-24.414,-53.223,0.000,0
1595393588.304,118.652,-24.414,-18.555,-36.621,0.000,0
1595393588.308,146.973,-28.809,-23.438,-27.832,0.000,0
1595393588.312,-139.160,-27.832,-23.926,-27.832,0.000,0
1595393588.316,-197.754,-22.461,-18.555,-41.992,0.000,0
1595393588.320,61.035,-25.879,-21.484,-43.945,0.000,0
1595393588.324,185.547,-25.879,-20.996,-27.344,0.000,0
1595393588.328,-34.668,-26.367,-14.648,-20.996,0.000,0
1595393588.332,-223.145,-26.855,-9.277,-29.297,0.000,0
1595393588.336,-32.715,-24.902,-7.324,-32.715,0.000,0
1595393588.340,188.965,-23.438,-8.789,-22.461,0.000,0
1595393588.344,42.480,-20.508,-9.766,-20.996,0.000,0
1595393588.347,-210.449,-22.461,-14.160,-35.645,0.000,0
1595393588.351,-109.863,-22.461,-15.625,-40.039,0.000,0
1595393588.355,159.668,-21.484,-13.184,-30.762,0.000,0
1595393588.359,114.258,-23.926,-15.625,-19.531,0.000,0
1595393588.363,-170.410,-29.297,-18.066,-22.949,0.000,0
1595393588.367,-188.477,-37.598,-21.973,-37.109,0.000,0
1595393588.371,96.680,-34.668,-15.625,-31.738,0.000,0
1595393588.375,170.410,-25.879,-8.789,-23.926,0.000,0
1595393588.379,-91.797,-22.461,-7.324,-22.461,0.000,0
1595393588.383,-209.473,-19.531,-5.371,-24.902,0.000,0
1595393588.386,22.949,-20.508,-7.812,-25.879,0.000,0
1595393588.390,176.270,-26.855,-8.789,-20.020,0.000,0
1595393588.394,-25.391,-26.367,-5.371,-26.367,0.000,0
1595393588.398,-221.680,-23.926,-4.883,-30.273,0.000,0
1595393588.402,-53.711,-24.902,-5.859,-23.926,0.000,0
1595393588.406,187.012,-20.996,-1.465,-17.090,0.000,0
1595393588.410,67.383,-24.414,-0.488,-15.625,0.000,0
1595393588.414,-199.707,-33.691,-8.789,-32.227,0.000,0
1595393588.418,-125.000,-36.621,-8.301,-40.527,0.000,0
1595393588.422,151.855,-34.180,-4.395,-32.715,0.000,0
1595393588.426,127.441,-31.250,-9.766,-27.832,0.000,0
1595393588.429,-154.785,-30.762,-12.695,-29.297,0.000,0
1595393588.433,-178.223,-26.855,-11.719,-29.785,0.000,0
1595393588.437,102.051,-24.902,-8.301,-23.438,0.000,0
1595393588.441,172.363,-29.297,-0.488,-19.531,0.000,0
1595393588.445,-96.191,-40.527,-0.977,-23.926,0.000,0
1595393588.449,-234.863,-48.340,-0.977,-34.180,0.000,0
1595393588.453,5.859,-41.992,4.883,-19.531,0.000,0
1595393588.457,197.266,-38.086,8.301,-2.930,0.000,0
1595393588.461,-4.395,-42.480,0.977,-9.766,0.000,0
1595393588.465,-224.609,-40.039,-5.859,-20.508,0.000,0
1595393588.469,-67.383,-30.273,-2.930,-23.926,0.000,1
1595393588.472,179.688,-30.273,-2.930,-16.602,0.000,0
1595393588.476,80.566,-36.621,-7.324,-8.301,0.000,0
1595393588.480,-189.941,-39.062,-11.719,-13.184,0.000,0
1595393588.484,-140.625,-35.156,-8.301,-18.555,0.000,0
1595393588.488,155.273,-31.250,1.953,-9.766,0.000,0
1595393588.492,168.457,-29.785,0.488,-0.977,0.000,0
1595393588.496,-112.793,-32.227,-2.930,0.488,0.000,0
1595393588.500,-183.594,-38.086,-4.883,-7.324,0.000,0
1595393588.504,73.730,-34.668,-4.883,-13.672,0.000,0
1595393588.508,195.312,-28.320,-2.930,2.930,0.000,0
1595393588.511,-38.086,-26.855,-3.906,-7.324,0.000,0
1595393588.515,-199.219,-24.902,-4.395,-30.762,0.000,0
1595393588.519,6.836,-20.020,-0.488,-19.043,0.000,0
1595393588.523,210.938,-17.090,0.977,-3.418,0.000,0
1595393588.527,45.898,-23.438,-2.441,-3.906,0.000,0
1595393588.531,-190.918,-23.438,-6.836,-17.090,0.000,0
1595393588.535,-71.777,-19.043,-4.883,-24.902,0.000,0
1595393588.539,191.406,-18.555,0.977,-18.555,0.000,0
1595393588.543,121.094,-15.625,-0.488,-12.695,0.000,0
1595393588.547,-156.738,-17.578,-3.906,-20.996,0.000,0
1595393588.551,-146.484,-21.973,-8.789,-22.949,0.000,0
1595393588.554,136.230,-21.484,-9.766,-13.184,0.000,0
1595393588.558,179.199,-15.137,-4.883,-11.230,0.000,0
1595393588.562,-90.332,-14.160,-3.906,-12.695,0.000,0
1595393588.566,-185.547,-21.973,-3.906,-13.672,0.000,0
1595393588.570,58.105,-28.809,-4.395,-16.602,0.000,0
1595393588.574,199.219,-27.832,-7.812,-14.648,0.000,0
1595393588.578,-24.902,-26.855,-13.184,-11.230,0.000,0
1595393588.582,-208.984,-36.133,-20.508,-22.949,0.000,0
1595393588.586,-20.020,-36.133,-19.531,-23.438,0.000,0
1595393588.590,198.730,-27.344,-13.184,-11.719,0.000,0
1595393588.594,56.641,-29.297,-15.137,-5.859,0.000,0
1595393588.597,-189.941,-28.809,-20.508,-10.742,0.000,0
1595393588.601,-98.145,-24.902,-21.484,-23.926,0.000,0
1595393588.605,176.758,-20.020,-17.090,-15.137,0.000,0
1595393588.609,125.977,-24.414,-19.043,-1.465,0.000,0
1595393588.613,-168.945,-33.203,-21.484,-12.207,0.000,0
1595393588.617,-167.480,-29.785,-19.531,-21.973,0.000,0
1595393588.621,113.770,-27.344,-16.113,-16.602,0.000,0
1595393588.625,169.434,-25.879,-15.137,-8.301,0.000,0
1595393588.629,-90.820,-21.484,-16.113,-15.625,0.000,0
1595393588.633,-205.566,-19.043,-15.625,-29.297,0.000,0
1595393588.636,32.715,-20.020,-15.625,-36.621,0.000,0
1595393588.640,198.730,-18.555,-15.137,-20.996,0.000,0
1595393588.644,-13.672,-20.996,-13.672,-13.672,0.000,0
1595393588.648,-221.191,-27.344,-12.207,-22.461,0.000,0
1595393588.652,-44.922,-22.461,-9.277,-29.297,0.000,0
1595393588.656,187.988,-18.555,-7.324,-18.555,0.000,0
1595393588.660,56.152,-22.461,-9.766,-17.578,0.000,0
1595393588.664,-199.707,-24.414,-12.207,-40.527,0.000,0
1595393588.668,-132.324,-25.879,-13.672,-42.969,0.000,0
1595393588.672,141.602,-19.043,-9.766,-24.414,0.000,0
1595393588.676,131.348,-15.625,-9.277,-20.508,0.000,0
1595393588.679,-155.762,-18.066,-17.090,-29.785,0.000,0
1595393588.683,-196.777,-20.020,-19.531,-35.156,0.000,0
1595393588.687,83.008,-22.949,-20.020,-30.762,0.000,0
1595393588.691,177.246,-20.020,-20.020,-24.414,0.000,0
1595393588.695,-73.242,-19.531,-18.066,-25.391,0.000,0
1595393588.699,-214.355,-22.461,-18.555,-31.250,0.000,0
1595393588.703,2.930,-23.926,-16.602,-31.738,0.000,0
1595393588.707,187.988,-17.578,-16.113,-24.414,0.000,0
1595393588.711,3.418,-13.184,-18.555,-30.762,0.000,0
1595393588.715,-214.844,-23.926,-23.926,-43.457,0.000,0
1595393588.719,-77.637,-26.855,-24.414,-47.363,0.000,0
1595393588.722,165.527,-24.414,-20.996,-35.645,0.000,0
1595393588.726,80.566,-26.855,-22.949,-21.484,0.000,0
1595393588.730,-185.547,-29.785,-25.391,-26.367,0.000,0
1595393588.734,-147.461,-32.227,-28.809,-40.039,0.000,0
1595393588.738,134.277,-30.762,-27.832,-33.691,0.000,0
1595393588.742,145.020,-26.367,-28.320,-18.066,0.000,0
1595393588.746,-142.578,-30.273,-36.133,-37.109,0.000,0
1595393588.750,-208.496,-33.691,-38.574,-50.781,0.000,0
1595393588.754,54.199,-27.832,-37.109,-43.457,0.000,0
1595393588.758,171.387,-29.297,-39.551,-31.250,0.000,0
1595393588.761,-70.312,-34.180,-38.574,-26.855,0.000,0
1595393588.765,-232.422,-34.668,-39.551,-41.504,0.000,0
1595393588.769,-20.996,-36.133,-42.480,-43.457,0.000,0
1595393588.773,170.898,-38.574,-42.480,-32.715,0.000,0
1595393588.777,7.812,-35.156,-44.922,-30.273,0.000,0
1595393588.781,-221.680,-41.504,-48.340,-41.504,0.000,0
1595393588.785,-104.004,-44.434,-45.410,-56.152,0.000,0
1595393588.789,162.109,-36.621,-43.945,-54.688,0.000,0
1595393588.793,88.379,-38.574,-42.480,-36.133,0.000,0
1595393588.797,-196.777,-38.574,-41.016,-34.668,0.000,0
1595393588.801,-168.457,-34.180,-44.434,-45.410,0.000,0
1595393588.804,124.023,-34.180,-40.527,-31.250,0.000,0
1595393588.808,157.227,-34.180,-40.039,-17.090,0.000,0
1595393588.812,-125.977,-38.086,-43.457,-31.738,0.000,0
1595393588.816,-215.820,-41.016,-40.039,-39.551,0.000,0
1595393588.820,44.434,-35.156,-37.109,-36.621,0.000,0
1595393588.824,181.641,-29.785,-34.180,-32.227,0.000,0
1595393588.828,-51.758,-39.551,-42.969,-30.762,0.000,0
1595393588.832,-216.309,-45.410,-47.363,-37.598,0.000,0
1595393588.836,-19.043,-40.039,-39.551,-27.344,0.000,0
1595393588.840,183.594,-38.086,-35.645,-15.137,0.000,0
1595393588.844,43.457,-36.621,-33.691,-16.602,0.000,0
1595393588.847,-205.078,-41.016,-32.227,-30.273,0.000,0
1595393588.851,-112.305,-44.434,-35.156,-37.598,0.000,0
1595393588.855,168.457,-39.062,-34.668,-26.367,0.000,0
1595393588.859,117.188,-38.574,-30.762,-29.297,0.000,0
1595393588.863,-181.152,-39.551,-32.227,-32.715,0.000,0
1595393588.867,-190.918,-41.504,-32.227,-36.621,0.000,0
1595393588.871,78.613,-41.016,-29.785,-39.551,0.000,0
1595393588.875,137.695,-39.062,-32.227,-28.809,0.000,0
1595393588.879,-117.676,-39.551,-31.738,-26.367,0.000,0
1595393588.883,-231.934,-43.945,-32.227,-34.180,0.000,0
1595393588.886,8.789,-43.457,-36.133,-41.992,0.000,0
1595393588.890,173.828,-35.156,-34.668,-37.109,0.000,0
1595393588.894,-30.273,-31.738,-32.715,-27.344,0.000,0
1595393588.898,-225.586,-33.691,-33.691,-37.109,0.000,0
1595393588.902,-55.176,-34.668,-29.297,-39.551,0.000,0
1595393588.906,183.105,-30.762,-22.949,-26.367,0.000,0
1595393588.910,74.707,-30.273,-21.484,-29.785,0.000,0
1595393588.914,-182.129,-29.297,-23.438,-34.180,0.000,0
1595393588.918,-133.301,-29.297,-28.320,-50.293,0.000,0
1595393588.922,141.113,-34.180,-27.832,-43.945,0.000,0
1595393588.926,130.859,-39.062,-22.461,-24.414,0.000,0
1595393588.929,-154.297,-41.992,-21.973,-31.250,0.000,0
1595393588.933,-187.012,-40.039,-20.508,-36.621,0.000,0
1595393588.937,90.332,-38.086,-18.555,-29.297,0.000,0
1595393588.941,184.570,-37.109,-19.531,-16.602,0.000,0
1595393588.945,-67.383,-37.109,-23.438,-13.672,0.000,0
1595393588.949,-209.961,-31.738,-23.438,-28.809,0.000,0
1595393588.953,18.066,-24.902,-18.555,-33.691,0.000,0
1595393588.957,209.961,-22.461,-13.184,-22.949,0.000,0
1595393588.961,13.184,-22.949,-13.184,-24.414,0.000,0
1595393588.965,-220.703,-24.414,-16.602,-28.320,0.000,0
1595393588.969,-71.777,-27.344,-11.230,-18.066,0.000,0
1595393588.972,184.570,-29.297,-5.859,-13.184,0.000,0
1595393588.976,88.867,-34.180,-11.719,-15.137,0.000,0
1595393588.980,-195.312,-40.527,-16.602,-32.227,0.000,0
1595393588.984,-156.738,-39.062,-13.672,-41.504,0.000,0
1595393588.988,131.348,-38.574,-9.766,-21.973,0.000,0
1595393588.992,139.160,-39.062,-11.230,-20.508,0.000,0
1595393588.996,-131.836,-34.668,-13.672,-27.344,0.000,0
1595393589.000,-195.801,-37.598,-17.578,-34.668,0.000,0
1595393589.004,66.406,-38.086,-9.766,-37.109,0.000,0
1595393589.008,188.477,-36.621,-8.789,-25.879,0.000,0
1595393589.011,-55.664,-39.551,-13.672,-23.926,0.000,0
1595393589.015,-218.262,-36.621,-17.578,-33.203,0.000,0
1595393589.019,-3.418,-31.738,-17.578,-29.785,0.000,0
1595393589.023,195.801,-31.250,-10.742,-18.066,0.000,0
1595393589.027,28.809,-32.227,-10.742,-19.043,0.000,0
1595393589.031,-202.148,-32.715,-12.207,-15.625,0.000,0
1595393589.035,-81.055,-36.133,-14.648,-17.578,0.000,0
1595393589.039,170.410,-33.691,-17.578,-22.949,0.000,0
1595393589.043,91.797,-34.180,-17.578,-14.160,0.000,0
1595393589.047,-185.059,-41.504,-19.043,-20.020,0.000,0
1595393589.051,-173.340,-42.480,-23.926,-37.109,0.000,0
1595393589.054,115.234,-38.086,-22.949,-36.133,0.000,0
1595393589.058,150.879,-40.527,-20.020,-30.762,0.000,0
1595393589.062,-136.719,-40.039,-17.090,-33.203,0.000,0
1595393589.066,-209.961,-32.715,-13.672,-35.156,0.000,0
1595393589.070,56.152,-31.250,-11.719,-34.668,0.000,0
1595393589.074,177.246,-34.180,-12.207,-33.691,0.000,0
1595393589.078,-56.152,-44.434,-12.207,-28.320,0.000,0
1595393589.082,-241.699,-50.293,-18.555,-31.250,0.000,0
1595393589.086,-46.875,-41.016,-15.625,-43.945,0.000,0
1595393589.090,178.223,-39.062,-9.766,-29.785,0.000,0
1595393589.094,34.668,-40.039,-9.766,-23.438,0.000,0
1595393589.097,-214.355,-34.180,-8.301,-40.527,0.000,0
1595393589.101,-104.980,-34.668,-11.230,-43.945,0.000,0
1595393589.105,166.992,-32.227,-11.230,-28.320,0.000,0
1595393589.109,105.957,-23.926,-8.789,-13.184,0.000,0
1595393589.113,-173.340,-23.926,-14.648,-23.438,0.000,0
1595393589.117,-172.852,-25.879,-17.578,-33.203,0.000,0
1595393589.121,110.840,-20.996,-12.695,-25.391,0.000,0
1595393589.125,166.992,-20.020,-10.742,-14.160,0.000,0
1595393589.129,-90.820,-24.414,-10.254,-18.066,0.000,0
1595393589.133,-202.148,-23.438,-5.371,-27.832,0.000,0
1595393589.136,29.297,-20.020,-3.906,-23.438,0.000,0
1595393589.140,191.406,-18.555,-7.812,-14.160,0.000,0
1595393589.144,-18.066,-21.973,-9.277,-20.020,0.000,0
1595393589.148,-221.191,-28.320,-18.555,-38.574,0.000,0
1595393589.152,-54.688,-28.320,-24.902,-38.086,0.000,0
1595393589.156,181.152,-28.320,-16.602,-27.344,0.000,0
1595393589.160,61.523,-27.344,-12.207,-21.484,0.000,0
1595393589.164,-195.312,-24.414,-12.695,-27.832,0.000,0
1595393589.168,-132.812,-27.344,-14.160,-30.762,0.000,0
1595393589.172,137.695,-25.879,-14.160,-30.762,0.000,0
1595393589.176,125.977,-22.461,-17.578,-30.762,0.000,0
1595393589.179,-163.086,-31.250,-20.508,-30.273,0.000,0
1595393589.183,-199.219,-35.645,-18.555,-50.293,0.000,0
1595393589.187,72.266,-24.414,-19.043,-49.316,0.000,0
1595393589.191,155.273,-22.461,-19.531,-32.715,0.000,0
1595393589.195,-90.332,-28.320,-17.090,-33.203,0.000,0
1595393589.199,-217.285,-23.438,-16.113,-40.039,0.000,0
1595393589.203,15.625,-21.973,-12.207,-35.645,0.000,0
1595393589.207,188.477,-24.902,-12.207,-27.832,0.000,0
1595393589.211,-4.883,-32.227,-20.996,-27.832,0.000,0
1595393589.215,-221.680,-40.039,-25.391,-38.574,0.000,0
1595393589.219,-81.055,-36.621,-24.414,-47.852,0.000,0
1595393589.222,171.387,-29.785,-21.973,-40.039,0.000,0
1595393589.226,76.172,-32.715,-24.414,-33.203,0.000,0
1595393589.230,-199.219,-37.109,-25.391,-45.898,0.000,0
1595393589.234,-145.508,-34.180,-23.926,-57.129,0.000,0
1595393589.238,145.996,-29.297,-22.949,-42.969,0.000,0
1595393589.242,142.090,-32.715,-25.879,-31.250,0.000,0
1595393589.246,-146.484,-31.738,-27.832,-43.945,0.000,0
1595393589.250,-202.148,-28.809,-27.344,-54.199,0.000,0
1595393589.254,63.965,-33.203,-28.320,-49.316,0.000,0
1595393589.258,173.828,-31.250,-21.484,-32.227,0.000,0
1595393589.261,-60.547,-30.762,-14.648,-25.391,0.000,0
1595393589.265,-217.285,-33.691,-16.602,-35.156,0.000,0
1595393589.269,-12.207,-31.738,-16.602,-29.297,0.000,0
1595393589.273,180.664,-32.227,-15.137,-17.578,0.000,0
1595393589.277,14.648,-31.738,-16.602,-23.926,0.000,0
1595393589.281,-217.773,-30.762,-15.137,-42.969,0.000,0
1595393589.285,-98.633,-30.273,-9.766,-40.527,0.000,0
1595393589.289,163.574,-31.738,-13.184,-26.367,0.000,0
1595393589.293,84.473,-37.109,-15.625,-24.414,0.000,0
1595393589.297,-191.406,-42.480,-17.090,-25.879,0.000,0
1595393589.301,-170.898,-42.969,-24.414,-37.109,0.000,0
1595393589.304,116.211,-41.992,-24.902,-28.320,0.000,0
1595393589.308,155.273,-39.062,-19.531,-7.812,0.000,0
1595393589.312,-124.023,-34.180,-14.648,-12.695,0.000,0
1595393589.316,-209.961,-39.062,-14.160,-28.320,0.000,0
1595393589.320,50.293,-39.062,-15.137,-33.203,0.000,0
1595393589.324,186.035,-33.203,-17.578,-29.785,0.000,0
1595393589.328,-44.922,-39.062,-24.414,-37.109,0.000,0
1595393589.332,-225.098,-47.363,-28.320,-43.945,0.000,0
1595393589.336,-32.715,-46.875,-25.391,-36.621,0.000,0
1595393589.340,186.523,-39.062,-18.555,-29.297,0.000,0
1595393589.344,40.039,-35.156,-18.555,-23.438,0.000,0
1595393589.347,-205.078,-36.133,-18.555,-27.344,0.000,0
1595393589.351,-113.770,-32.227,-19.043,-37.109,0.000,0
1595393589.355,152.832,-30.762,-19.531,-37.109,0.000,0
1595393589.359,107.422,-33.691,-18.555,-31.250,0.000,0
1595393589.363,-179.688,-38.574,-27.832,-32.227,0.000,0
1595393589.367,-184.082,-37.598,-29.297,-39.551,0.000,0
1595393589.371,107.910,-32.227,-20.996,-42.969,0.000,0
1595393589.375,170.898,-33.691,-20.020,-22.461,0.000,0
1595393589.379,-105.469,-41.992,-23.438,-22.949,0.000,0
1595393589.383,-223.633,-42.969,-23.926,-44.434,0.000,0
1595393589.386,19.043,-41.504,-23.438,-40.039,0.000,0
1595393589.390,187.500,-41.504,-20.996,-31.250,0.000,0
1595393589.394,-6.836,-40.527,-17.578,-29.297,0.000,0
1595393589.398,-212.402,-43.457,-22.949,-39.062,0.000,0
1595393589.402,-54.199,-39.551,-19.043,-43.457,0.000,0
1595393589.406,185.059,-33.691,-13.184,-26.855,0.000,0
1595393589.410,66.406,-36.133,-15.137,-18.066,0.000,0
1595393589.414,-190.430,-38.574,-10.742,-36.133,0.000,0
1595393589.418,-116.211,-35.156,-9.277,-38.086,0.000,0
1595393589.422,152.832,-32.227,-13.672,-23.926,0.000,0
1595393589.426,129.395,-36.621,-16.602,-18.066,0.000,0
1595393589.429,-148.438,-41.992,-17.090,-20.508,0.000,0
1595393589.433,-185.059,-39.062,-18.555,-30.273,0.000,0
1595393589.437,91.309,-33.203,-13.184,-32.715,0.000,0
1595393589.441,163.574,-36.621,-10.254,-35.645,0.000,0
1595393589.445,-100.098,-39.551,-13.184,-38.086,0.000,0
1595393589.449,-218.262,-39.551,-16.602,-41.992,0.000,0
1595393589.453,9.766,-41.992,-17.578,-31.250,0.000,0
1595393589.457,187.988,-41.992,-15.625,-15.625,0.000,0
1595393589.461,14.160,-40.039,-12.695,-14.648,0.000,0
1595393589.465,-197.266,-43.457,-15.137,-26.855,0.000,0
1595393589.469,-70.312,-39.551,-12.695,-34.180,0.000,0
1595393589.472,168.945,-32.227,-9.277,-22.949,0.000,0
1595393589.476,75.684,-35.156,-13.184,-21.484,0.000,0
1595393589.480,-192.383,-41.504,-19.531,-27.832,0.000,0
1595393589.484,-148.926,-46.387,-22.949,-38.574,0.000,0
1595393589.488,135.742,-42.480,-18.555,-31.738,0.000,0
1595393589.492,139.648,-36.621,-17.578,-20.020,0.000,0
1595393589.496,-150.391,-40.527,-20.508,-28.320,0.000,0
1595393589.500,-207.520,-45.898,-18.555,-29.785,0.000,0
1595393589.504,65.430,-37.598,-15.137,-21.973,0.000,0
1595393589.508,186.035,-34.180,-12.695,-26.367,0.000,0
1595393589.511,-51.270,-38.086,-14.160,-28.809,0.000,0
1595393589.515,-214.355,-35.156,-23.926,-33.203,0.000,0
1595393589.519,-7.812,-31.738,-20.996,-32.715,0.000,0
1595393589.523,189.453,-31.250,-14.160,-20.020,0.000,0
1595393589.527,16.113,-35.645,-19.531,-18.066,0.000,0
1595393589.531,-217.285,-40.527,-23.438,-30.762,0.000,0
1595393589.535,-92.285,-41.504,-23.438,-37.598,0.000,0
1595393589.539,160.645,-37.598,-24.414,-25.391,0.000,0
1595393589.543,85.449,-37.109,-27.832,-18.555,0.000,0
1595393589.547,-187.012,-40.527,-27.344,-29.297,0.000,0
1595393589.551,-162.109,-34.668,-21.973,-34.668,0.000,0
1595393589.554,128.418,-35.156,-24.414,-33.691,0.000,0
1595393589.558,157.715,-35.645,-25.391,-31.250,0.000,0
1595393589.562,-125.488,-31.250,-24.414,-30.762,0.000,0
1595393589.566,-204.590,-28.320,-23.926,-41.992,0.000,0
1595393589.570,55.176,-22.461,-20.020,-36.133,0.000,0
1595393589.574,189.941,-22.461,-12.207,-20.996,0.000,0
1595393589.578,-33.691,-29.785,-6.348,-20.996,0.000,0
1595393589.582,-216.309,-32.227,-9.277,-30.273,0.000,0
1595393589.586,-31.250,-24.414,-11.230,-26.367,0.000,0
1595393589.590,185.059,-20.020,-8.789,-22.461,0.000,0
1595393589.594,34.668,-22.461,-9.277,-32.715,0.000,0
1595393589.597,-214.355,-27.832,-16.113,-40.039,0.000,0
1595393589.601,-112.793,-28.320,-15.625,-36.133,0.000,0
1595393589.605,153.320,-27.344,-13.672,-25.879,0.000,0
1595393589.609,105.957,-28.320,-16.113,-27.832,0.000,0
1595393589.613,-169.922,-35.645,-20.508,-29.785,0.000,0
1595393589.617,-174.805,-41.016,-20.020,-30.762,0.000,0
1595393589.621,106.445,-32.227,-17.090,-33.691,0.000,0
1595393589.625,159.668,-32.227,-18.066,-31.738,0.000,0
1595393589.629,-109.375,-40.039,-21.973,-30.762,0.000,0
1595393589.633,-217.773,-36.133,-23.926,-27.344,0.000,0
1595393589.636,21.484,-24.902,-22.949,-25.391,0.000,0
1595393589.640,187.988,-23.926,-23.926,-24.414,0.000,0
1595393589.644,-25.879,-31.250,-29.297,-23.438,0.000,0
1595393589.648,-231.445,-32.227,-29.297,-37.109,0.000,0
1595393589.652,-59.570,-31.250,-21.484,-38.574,0.000,0
1595393589.656,173.828,-32.715,-17.578,-32.715,0.000,0
1595393589.660,52.734,-30.273,-21.484,-23.438,0.000,0
1595393589.664,-204.590,-28.320,-22.949,-27.344,0.000,0
1595393589.668,-126.465,-27.832,-21.973,-43.945,0.000,0
1595393589.672,149.902,-23.926,-21.484,-30.762,0.000,0
1595393589.676,122.559,-26.367,-19.531,-18.066,0.000,0
1595393589.679,-168.457,-34.180,-25.879,-30.762,0.000,0
1595393589.683,-202.637,-38.574,-32.227,-42.480,0.000,0
1595393589.687,78.613,-37.598,-26.855,-34.668,0.000,0
1595393589.691,167.480,-29.297,-20.996,-33.203,0.000,0
1595393589.695,-80.078,-30.762,-21.484,-31.738,0.000,0
1595393589.699,-205.566,-35.156,-21.484,-39.551,0.000,0
1595393589.703,14.648,-32.227,-16.113,-41.016,0.000,0
1595393589.707,183.105,-27.832,-12.695,-28.320,0.000,0
1595393589.711,-9.277,-28.809,-19.531,-26.367,0.000,0
1595393589.715,-220.703,-33.203,-27.344,-34.180,0.000,0
1595393589.719,-75.684,-31.738,-23.438,-41.016,0.000,0
1595393589.722,165.527,-29.297,-19.531,-30.762,0.000,0
1595393589.726,66.895,-32.227,-14.648,-14.160,0.000,0
1595393589.730,-199.707,-30.762,-11.719,-20.020,0.000,0
1595393589.734,-151.367,-27.832,-13.184,-38.086,0.000,0
1595393589.738,125.000,-31.250,-13.184,-29.785,0.000,0
1595393589.742,135.254,-32.715,-15.625,-18.555,0.000,0
1595393589.746,-141.602,-31.250,-24.414,-36.133,0.000,0
1595393589.750,-208.984,-32.715,-30.762,-42.969,0.000,0
1595393589.754,58.594,-34.180,-25.879,-35.645,0.000,0
1595393589.758,175.293,-34.668,-23.438,-26.855,0.000,0
1595393589.761,-65.430,-32.715,-15.625,-16.113,0.000,0
1595393589.765,-224.121,-35.645,-11.230,-19.531,0.000,0
1595393589.769,-8.789,-30.762,-14.648,-24.902,0.000,0
1595393589.773,193.359,-26.855,-15.137,-16.113,0.000,0
1595393589.777,21.973,-33.203,-7.812,-14.648,0.000,0
1595393589.781,-216.797,-35.645,-6.348,-25.391,0.000,0
1595393589.785,-96.191,-40.527,-10.254,-27.344,0.000,0
1595393589.789,164.062,-35.645,-11.230,-20.020,0.000,0
1595393589.793,88.867,-31.738,-16.113,-18.066,0.000,0
1595393589.797,-179.199,-33.691,-15.137,-22.949,0.000,0
1595393589.801,-157.715,-33.203,-15.137,-27.832,0.000,0
1595393589.804,120.605,-28.320,-17.090,-20.996,0.000,0
1595393589.808,160.645,-22.461,-14.648,-10.254,0.000,0
1595393589.812,-122.559,-27.832,-19.531,-17.578,0.000,0
1595393589.816,-222.168,-32.227,-26.855,-35.156,0.000,0
1595393589.820,45.898,-28.809,-28.809,-26.367,0.000,0
1595393589.824,193.848,-25.879,-24.414,-12.695,0.000,0
1595393589.828,-32.227,-31.250,-25.879,-16.113,0.000,0
1595393589.832,-211.426,-32.227,-28.809,-25.391,0.000,0
1595393589.836,-18.555,-22.949,-22.461,-28.320,0.000,0
1595393589.840,197.754,-23.926,-20.508,-17.090,0.000,0
1595393589.844,62.500,-26.855,-21.484,-18.555,0.000,0
1595393589.847,-195.801,-21.484,-23.926,-27.832,0.000,0
1595393589.851,-112.305,-24.902,-26.855,-33.203,0.000,0
1595393589.855,164.062,-27.344,-23.926,-23.926,0.000,0
1595393589.859,119.629,-23.926,-24.902,-22.949,0.000,0
1595393589.863,-165.039,-25.391,-28.809,-35.645,0.000,0
1595393589.867,-177.734,-29.297,-24.902,-41.992,0.000,0
1595393589.871,106.445,-29.297,-19.531,-34.180,0.000,0
1595393589.875,172.363,-28.320,-15.625,-16.602,0.000,0
1595393589.879,-93.262,-26.855,-11.719,-17.578,0.000,0
1595393589.883,-213.867,-24.902,-11.719,-32.715,0.000,0
1595393589.886,30.273,-25.879,-12.207,-32.227,0.000,0
1595393589.890,205.078,-21.484,-6.348,-30.273,0.000,0
1595393589.894,-4.395,-21.973,-7.812,-30.273,0.000,0
1595393589.898,-212.891,-27.832,-16.113,-28.809,0.000,0
1595393589.902,-49.316,-29.297,-15.625,-26.367,0.000,0
1595393589.906,183.594,-25.391,-13.184,-19.043,0.000,0
1595393589.910,68.359,-19.043,-12.695,-21.484,0.000,0
1595393589.914,-191.406,-17.090,-11.230,-29.297,0.000,0
1595393589.918,-127.441,-21.484,-11.230,-24.414,0.000,0
1595393589.922,153.320,-22.949,-7.324,-16.113,0.000,0
1595393589.926,135.742,-22.461,-7.812,-18.066,0.000,0
1595393589.929,-148.438,-25.879,-13.672,-18.066,0.000,0
1595393589.933,-175.781,-28.320,-8.789,-25.391,0.000,0
1595393589.937,95.215,-29.297,0.000,-25.879,0.000,0
1595393589.941,170.898,-29.297,-2.441,-20.996,0.000,0
1595393589.945,-82.520,-27.832,-8.301,-17.090,0.000,0
1595393589.949,-218.750,-34.180,-12.695,-23.438,0.000,0
1595393589.953,5.371,-34.180,-16.113,-45.898,0.000,0
1595393589.957,187.500,-25.879,-15.625,-40.527,0.000,0
1595393589.961,-3.418,-32.715,-17.578,-27.344,0.000,0
1595393589.965,-229.004,-41.504,-25.391,-34.668,0.000,0
1595393589.969,-82.520,-37.598,-24.902,-39.551,0.000,0
1595393589.972,162.598,-38.574,-18.066,-37.598,0.000,0
1595393589.976,61.523,-41.016,-17.090,-27.344,0.000,0
1595393589.980,-199.707,-44.434,-19.531,-33.691,0.000,0
1595393589.984,-147.461,-45.898,-17.578,-48.828,0.000,0
1595393589.988,128.418,-41.016,-14.648,-36.133,0.000,0
1595393589.992,136.230,-38.086,-18.066,-26.367,0.000,0
1595393589.996,-131.348,-38.086,-19.043,-29.297,0.000,0
1595393590.000,-193.359,-36.621,-18.555,-38.086,0.000,0
1595393590.004,64.941,-35.645,-13.672,-41.016,0.000,0
1595393590.008,174.316,-38.574,-9.766,-30.762,0.000,0
1595393590.011,-65.430,-38.086,-14.160,-25.879,0.000,0
1595393590.015,-217.285,-29.297,-13.184,-35.156,0.000,0
1595393590.019,-16.602,-29.785,-12.207,-33.691,0.000,0
1595393590.023,179.199,-35.156,-12.207,-26.367,0.000,0
1595393590.027,18.555,-36.621,-11.719,-31.250,0.000,0
1595393590.031,-207.031,-38.574,-15.625,-31.738,0.000,0
1595393590.035,-92.285,-35.645,-11.230,-28.809,0.000,0
1595393590.039,151.367,-27.832,-9.766,-32.227,0.000,0
1595393590.043,79.590,-28.809,-16.602,-35.156,0.000,0
1595393590.047,-194.336,-33.691,-19.043,-41.992,0.000,0
1595393590.051,-178.711,-30.762,-18.066,-46.387,0.000,0
1595393590.054,101.074,-28.320,-17.578,-33.691,0.000,0
1595393590.058,137.695,-35.645,-20.996,-27.832,0.000,0
1595393590.062,-129.395,-39.062,-17.578,-33.691,0.000,0
1595393590.066,-208.496,-33.691,-13.672,-36.133,0.000,0
1595393590.070,45.898,-31.738,-14.648,-30.273,0.000,0
1595393590.074,186.523,-27.832,-9.277,-32.715,0.000,0
1595393590.078,-37.598,-24.902,-4.395,-35.156,0.000,0
1595393590.082,-225.586,-32.715,-11.719,-36.621,0.000,0
1595393590.086,-41.016,-46.387,-17.578,-38.574,0.000,0
1595393590.090,165.527,-47.852,-11.719,-29.297,0.000,0
1595393590.094,11.719,-45.898,-13.184,-26.855,0.000,0
1595393590.097,-224.121,-42.969,-15.137,-27.344,0.000,0
1595393590.101,-121.582,-41.504,-6.836,-28.320,0.000,0
1595393590.105,145.020,-40.039,-5.859,-29.297,0.000,0
1595393590.109,103.027,-38.574,-9.766,-31.250,0.000,0
1595393590.113,-177.734,-43.457,-13.672,-28.809,0.000,0
1595393590.117,-179.688,-44.434,-12.695,-24.414,0.000,0
1595393590.121,98.633,-41.992,-10.742,-28.809,0.000,0
1595393590.125,154.297,-46.387,-19.043,-25.391,0.000,0
1595393590.129,-106.934,-47.852,-25.391,-19.531,0.000,0
1595393590.133,-212.891,-43.457,-21.484,-28.320,0.000,0
1595393590.136,27.344,-36.133,-12.207,-17.578,0.000,0
1595393590.140,184.082,-28.320,-9.277,-4.883,0.000,0
1595393590.144,-12.695,-30.762,-13.184,-20.020,0.000,0
1595393590.148,-214.355,-31.250,-17.578,-34.668,0.000,0
1595393590.152,-57.129,-29.297,-21.973,-38.574,0.000,0
1595393590.156,175.293,-32.715,-22.949,-27.832,0.000,0
1595393590.160,63.965,-34.668,-22.949,-19.043,0.000,0
1595393590.164,-184.570,-33.203,-15.137,-28.320,0.000,0
1595393590.168,-113.770,-37.598,-19.043,-36.621,0.000,0
1595393590.172,166.016,-39.062,-25.391,-29.297,0.000,0
1595393590.176,134.766,-39.062,-26.367,-22.949,0.000,0
1595393590.179,-149.902,-37.598,-24.902,-27.832,0.000,0
1595393590.183,-178.711,-35.156,-22.949,-36.621,0.000,0
1595393590.187,84.473,-32.227,-22.949,-35.645,0.000,0
1595393590.191,176.270,-31.250,-25.879,-18.555,0.000,0
1595393590.195,-63.965,-39.062,-27.832,-11.230,0.000,0
1595393590.199,-203.125,-41.504,-24.902,-25.391,0.000,0
1595393590.203,20.508,-34.668,-22.949,-20.508,0.000,0
1595393590.207,201.660,-30.762,-25.391,-9.277,0.000,0
1595393590.211,15.625,-27.832,-21.973,-11.230,0.000,0
1595393590.215,-199.219,-29.785,-13.672,-7.324,0.000,0
1595393590.219,-58.105,-29.785,-8.789,-11.719,0.000,0
1595393590.222,189.453,-29.785,-6.836,-13.184,0.000,0
1595393590.226,87.402,-37.598,-13.672,-10.742,0.000,0
1595393590.230,-183.594,-40.039,-20.020,-22.461,0.000,0
1595393590.234,-132.812,-31.250,-12.695,-24.902,0.000,0
1595393590.238,145.020,-25.391,-10.742,-15.137,0.000,0
1595393590.242,152.832,-23.438,-11.230,-8.789,0.000,0
1595393590.246,-122.559,-22.949,-7.324,-21.973,0.000,0
1595393590.250,-185.059,-24.414,-8.789,-33.203,0.000,0
1595393590.254,81.055,-18.066,-6.836,-26.855,0.000,0
1595393590.258,186.523,-19.043,-5.859,-20.020,0.000,0
1595393590.261,-61.523,-23.926,-11.230,-24.414,0.000,0
1595393590.265,-218.262,-25.879,-14.160,-30.273,0.000,0
1595393590.269,-8.301,-23.926,-11.230,-33.203,0.000,0
1595393590.273,186.523,-30.762,-13.184,-33.203,0.000,0
1595393590.277,15.137,-41.016,-18.555,-25.879,0.000,0
1595393590.281,-218.750,-37.598,-18.555,-30.273,0.000,0
1595393590.285,-98.145,-34.668,-18.555,-41.504,0.000,0
1595393590.289,169.434,-34.668,-16.113,-24.902,0.000,0
1595393590.293,103.027,-30.762,-14.160,-14.160,0.000,0
1595393590.297,-189.941,-30.762,-20.020,-38.574,0.000,0
1595393590.301,-170.898,-22.949,-20.508,-43.945,0.000,0
1595393590.304,125.977,-20.996,-14.160,-32.715,0.000,0
1595393590.308,159.668,-27.832,-14.648,-26.855,0.000,0
1595393590.312,-112.305,-25.391,-16.602,-28.809,0.000,0
1595393590.316,-197.754,-25.391,-16.113,-36.621,0.000,0
1595393590.320,45.898,-23.926,-15.137,-33.691,0.000,0
1595393590.324,172.852,-23.926,-13.672,-22.461,0.000,0
1595393590.328,-42.480,-31.738,-11.230,-14.160,0.000,0
1595393590.332,-222.656,-35.645,-15.137,-28.809,0.000,0
1595393590.336,-45.898,-37.109,-20.020,-32.715,0.000,0
1595393590.340,185.547,-34.180,-17.578,-20.020,0.000,0
1595393590.344,51.758,-31.738,-14.648,-28.320,0.000,0
1595393590.347,-193.359,-32.715,-16.113,-35.156,0.000,0
1595393590.351,-95.215,-29.785,-14.160,-28.809,0.000,0
1595393590.355,166.992,-29.785,-11.230,-19.531,0.000,0
1595393590.359,120.117,-32.227,-14.160,-17.090,0.000,0
1595393590.363,-150.879,-32.227,-12.695,-18.555,0.000,0
1595393590.367,-160.156,-33.691,-10.742,-20.508,0.000,0
1595393590.371,116.211,-28.320,-13.184,-28.809,0.000,0
1595393590.375,184.082,-23.438,-19.531,-22.949,0.000,0
1595393590.379,-83.008,-26.855,-23.438,-24.902,0.000,0
1595393590.383,-195.801,-28.809,-24.902,-39.551,0.000,0
1595393590.386,44.434,-25.879,-28.809,-35.156,0.000,0
1595393590.390,184.570,-21.973,-34.180,-29.297,0.000,0
1595393590.394,-24.414,-24.414,-36.621,-34.180,0.000,0
1595393590.398,-214.844,-24.902,-31.250,-38.574,0.000,0
1595393590.402,-53.711,-28.809,-33.691,-44.434,0.000,0
1595393590.406,179.199,-28.320,-33.691,-41.016,0.000,0
1595393590.410,63.965,-30.273,-30.273,-35.645,0.000,0
1595393590.414,-197.266,-36.621,-27.832,-37.109,0.000,0
1595393590.418,-119.629,-32.715,-22.949,-38.086,0.000,0
1595393590.422,158.691,-31.250,-20.508,-34.180,0.000,0
1595393590.426,123.047,-32.227,-27.832,-28.320,0.000,0
1595393590.429,-162.598,-35.156,-29.297,-34.180,0.000,0
1595393590.433,-195.801,-36.621,-26.855,-42.969,0.000,0
1595393590.437,76.172,-30.273,-30.273,-37.109,0.000,0
1595393590.441,178.711,-26.367,-26.367,-19.043,0.000,0
1595393590.445,-78.125,-27.344,-28.320,-21.484,0.000,0
1595393590.449,-232.422,-27.344,-27.832,-33.203,0.000,0
1595393590.453,-2.930,-30.762,-20.508,-35.156,0.000,0
1595393590.457,175.293,-31.738,-18.555,-24.902,0.000,0
1595393590.461,-14.648,-31.250,-19.043,-15.137,0.000,0
1595393590.465,-224.609,-27.344,-15.625,-33.203,0.000,0
1595393590.469,-78.125,-25.879,-15.625,-39.062,0.000,0
1595393590.472,168.457,-27.344,-25.391,-34.180,0.000,0
1595393590.476,62.988,-29.785,-29.297,-35.645,0.000,0
1595393590.480,-203.613,-29.297,-24.902,-35.645,0.000,0
1595393590.484,-156.250,-30.273,-20.508,-41.016,0.000,0
1595393590.488,118.164,-34.668,-21.973,-31.250,0.000,0
1595393590.492,134.277,-30.273,-18.555,-16.602,0.000,0
1595393590.496,-141.113,-23.926,-14.648,-26.367,0.000,0
1595393590.500,-199.707,-20.020,-15.137,-33.203,0.000,0
1595393590.504,70.312,-15.625,-15.625,-28.809,0.000,0
1595393590.508,186.523,-15.137,-14.160,-17.578,0.000,0
1595393590.511,-49.805,-16.602,-13.184,-15.625,0.000,0
1595393590.515,-214.844,-20.508,-13.184,-24.414,0.000,0
1595393590.519,-13.184,-24.902,-15.137,-35.645,0.000,0
1595393590.523,188.477,-22.461,-20.508,-31.738,0.000,0
1595393590.527,29.297,-19.531,-19.531,-26.367,0.000,0
1595393590.531,-207.520,-25.879,-17.090,-30.762,0.000,0
1595393590.535,-95.215,-27.832,-15.625,-29.785,0.000,0
1595393590.539,166.992,-21.484,-11.230,-20.020,0.000,0
1595393590.543,100.586,-19.531,-10.742,-16.602,0.000,0
1595393590.547,-175.293,-22.949,-13.672,-27.832,0.000,0
1595393590.551,-164.551,-27.344,-14.648,-38.574,0.000,0
1595393590.554,121.582,-27.832,-16.602,-35.156,0.000,0
1595393590.558,160.645,-28.320,-21.973,-25.879,0.000,0
1595393590.562,-122.070,-32.227,-20.508,-33.203,0.000,0
1595393590.566,-200.195,-31.250,-17.578,-41.016,0.000,0
1595393590.570,50.781,-26.855,-11.230,-39.551,0.000,0
1595393590.574,180.176,-27.832,-6.348,-30.273,0.000,0
1595393590.578,-41.992,-31.738,-10.254,-25.391,0.000,0
1595393590.582,-228.516,-31.738,-11.719,-33.203,0.000,0
1595393590.586,-42.480,-29.785,-12.695,-36.621,0.000,0
1595393590.590,173.828,-29.785,-13.672,-29.297,0.000,0
1595393590.594,29.297,-35.645,-14.648,-23.438,0.000,0
1595393590.597,-219.238,-40.527,-11.719,-35.645,0.000,0
1595393590.601,-127.930,-41.016,-11.230,-45.898,0.000,0
1595393590.605,139.160,-41.504,-15.137,-37.109,0.000,0
1595393590.609,102.051,-38.574,-17.578,-31.250,0.000,0
1595393590.613,-174.805,-36.621,-15.625,-29.785,0.000,0
1595393590.617,-182.617,-34.180,-18.555,-33.203,0.000,0
1595393590.621,101.074,-35.156,-20.996,-33.691,0.000,0
1595393590.625,163.574,-33.691,-17.090,-18.066,0.000,0
1595393590.629,-100.098,-30.273,-20.020,-27.832,0.000,0
1595393590.633,-212.891,-31.738,-22.461,-47.363,0.000,0
1595393590.636,15.625,-29.785,-18.066,-44.922,0.000,0
1595393590.640,177.734,-22.461,-13.184,-34.180,0.000,0
1595393590.644,-20.508,-20.508,-8.301,-25.879,0.000,0
1595393590.648,-222.168,-22.949,-10.742,-23.438,0.000,0
1595393590.652,-55.664,-24.414,-15.137,-23.438,0.000,0
1595393590.656,173.340,-26.855,-20.996,-21.973,0.000,0
1595393590.660,55.176,-29.297,-27.344,-16.602,0.000,0
1595393590.664,-198.242,-29.297,-27.344,-21.973,0.000,0
1595393590.668,-131.348,-28.809,-25.879,-28.809,0.000,0
1595393590.672,142.578,-31.250,-20.508,-30.273,0.000,0
1595393590.676,127.930,-31.738,-16.113,-34.180,0.000,0
1595393590.679,-153.809,-36.133,-18.555,-35.156,0.000,0
1595393590.683,-194.336,-39.551,-22.461,-40.039,0.000,0
1595393590.687,80.078,-35.645,-22.461,-33.691,0.000,0
1595393590.691,174.805,-30.762,-16.602,-23.926,0.000,0
1595393590.695,-78.613,-30.273,-14.648,-32.715,0.000,0
1595393590.699,-227.539,-33.203,-20.020,-40.039,0.000,0
1595393590.703,-9.766,-33.691,-24.414,-40.527,0.000,0
1595393590.707,163.086,-33.203,-26.367,-32.227,0.000,0
1595393590.711,-19.043,-37.598,-23.438,-25.879,0.000,0
1595393590.715,-231.445,-43.457,-20.508,-31.250,0.000,0
1595393590.719,-90.332,-41.016,-15.137,-38.086,0.000,0
1595393590.722,168.457,-41.992,-8.301,-34.668,0.000,0
1595393590.726,67.871,-48.340,-11.230,-34.180,0.000,0
1595393590.730,-196.289,-46.387,-19.531,-39.551,0.000,0
1595393590.734,-145.996,-45.898,-21.484,-38.086,0.000,0
1595393590.738,125.977,-44.922,-20.020,-32.715,0.000,0
1595393590.742,139.648,-41.504,-19.043,-34.180,0.000,0
1595393590.746,-130.859,-40.527,-16.113,-34.180,0.000,0
1595393590.750,-199.707,-39.551,-11.230,-31.738,0.000,0
1595393590.754,58.105,-37.598,-10.254,-30.762,0.000,0
1595393590.758,176.270,-38.574,-10.742,-18.555,0.000,0
1595393590.761,-52.734,-39.551,-10.742,-19.043,0.000,0
1595393590.765,-211.426,-38.086,-15.137,-38.086,0.000,0
1595393590.769,-21.484,-41.992,-23.926,-43.945,0.000,0
1595393590.773,175.293,-40.527,-23.438,-35.156,0.000,0
1595393590.777,17.578,-43.457,-21.973,-40.039,0.000,0
1595393590.781,-212.402,-46.875,-27.832,-55.176,0.000,0
1595393590.785,-85.938,-38.574,-24.902,-53.711,0.000,0
1595393590.789,170.898,-32.715,-16.113,-41.504,0.000,0
1595393590.793,101.074,-34.180,-12.695,-32.227,0.000,0
1595393590.797,-172.852,-36.621,-12.207,-21.484,0.000,0
1595393590.801,-162.598,-39.551,-12.695,-26.367,0.000,0
1595393590.804,126.465,-37.598,-10.254,-22.949,0.000,0
1595393590.808,171.387,-32.715,-9.277,-17.090,0.000,0
1595393590.812,-103.516,-33.691,-18.066,-31.738,0.000,0
1595393590.816,-197.754,-36.621,-21.973,-36.621,0.000,0
1595393590.820,56.152,-31.738,-20.020,-35.645,0.000,0
1595393590.824,191.406,-28.320,-18.555,-23.438,0.000,0
1595393590.828,-30.762,-32.715,-17.090,-17.578,0.000,0
1595393590.832,-208.008,-35.645,-18.066,-32.715,0.000,0
1595393590.836,-28.809,-32.715,-17.578,-37.598,0.000,0
1595393590.840,197.266,-26.855,-13.184,-29.785,0.000,0
1595393590.844,69.336,-29.785,-9.766,-12.695,0.000,0
1595393590.847,-189.453,-32.715,-12.207,-13.672,0.000,0
1595393590.851,-112.305,-31.738,-14.648,-24.902,0.000,0
1595393590.855,157.227,-28.320,-9.277,-23.926,0.000,0
1595393590.859,123.047,-24.902,-2.441,-17.090,0.000,0
1595393590.863,-154.785,-28.320,-6.836,-20.996,0.000,0
1595393590.867,-167.480,-30.273,-8.301,-24.902,0.000,0
1595393590.871,112.305,-27.344,-2.930,-22.949,0.000,0
1595393590.875,185.059,-21.973,-1.953,-22.461,0.000,0
1595393590.879,-83.008,-29.297,-9.277,-18.555,0.000,0
1595393590.883,-207.031,-35.645,-16.602,-30.273,0.000,0
1595393590.886,29.785,-28.320,-14.648,-39.551,0.000,0
1595393590.890,182.129,-26.367,-14.648,-31.738,0.000,0
1595393590.894,-21.973,-26.855,-20.508,-34.668,0.000,0
1595393590.898,-221.680,-27.832,-20.020,-37.598,0.000,0
1595393590.902,-55.664,-28.809,-15.137,-38.086,0.000,0
1595393590.906,176.270,-29.297,-13.184,-29.785,0.000,0
1595393590.910,53.223,-30.273,-14.648,-20.508,0.000,0
1595393590.914,-197.266,-28.809,-16.602,-38.574,0.000,0
1595393590.918,-124.023,-28.809,-16.602,-49.805,0.000,0
1595393590.922,148.438,-26.367,-14.648,-30.273,0.000,0
1595393590.926,123.535,-28.809,-12.695,-18.555,0.000,0
1595393590.929,-161.621,-35.645,-15.625,-41.504,0.000,0
1595393590.933,-199.219,-37.598,-15.137,-52.734,0.000,0
1595393590.937,68.359,-40.039,-15.137,-38.086,0.000,0
1595393590.941,164.551,-39.062,-16.113,-21.484,0.000,0
1595393590.945,-72.754,-35.156,-11.230,-12.207,0.000,0
1595393590.949,-208.496,-30.273,-7.324,-20.508,0.000,0
1595393590.953,5.859,-33.691,-8.301,-23.926,0.000,0
1595393590.957,187.012,-34.180,-8.789,-12.207,0.000,0
1595393590.961,8.301,-29.785,-6.836,-9.766,0.000,0
1595393590.965,-216.797,-32.227,-7.812,-26.855,0.000,0
1595393590.969,-80.078,-31.250,-13.184,-30.273,0.000,0
1595393590.972,169.434,-26.367,-15.137,-14.160,0.000,0
1595393590.976,85.938,-27.344,-16.113,-9.766,0.000,0
1595393590.980,-180.664,-34.180,-16.602,-21.973,0.000,0
1595393590.984,-145.508,-37.109,-14.160,-34.668,0.000,0
1595393590.988,131.836,-32.715,-11.719,-23.926,0.000,0
1595393590.992,137.695,-33.691,-12.695,-13.672,0.000,0
1595393590.996,-138.672,-42.969,-15.625,-27.832,0.000,0
1595393591.000,-201.660,-43.945,-17.578,-28.809,0.000,0
1595393591.004,67.871,-36.133,-14.648,-22.461,0.000,0
1595393591.008,199.219,-30.762,-10.742,-18.555,0.000,0
1595393591.011,-47.363,-32.715,-11.719,-20.996,0.000,0
1595393591.015,-229.492,-33.203,-15.625,-31.738,0.000,0
1595393591.019,-24.902,-26.855,-13.184,-28.809,0.000,0
1595393591.023,186.035,-26.855,-14.648,-15.625,0.000,0
1595393591.027,30.273,-35.645,-18.066,-11.230,0.000,0
1595393591.031,-211.426,-36.133,-16.113,-21.484,0.000,0
1595393591.035,-97.168,-28.809,-13.184,-32.227,0.000,0
1595393591.039,159.180,-32.227,-9.277,-30.762,0.000,0
1595393591.043,83.984,-37.109,-10.742,-18.555,0.000,0
1595393591.047,-185.059,-38.086,-15.137,-12.207,0.000,0
1595393591.051,-167.480,-34.180,-10.742,-26.855,0.000,0
1595393591.054,120.117,-27.832,-2.930,-18.555,0.000,0
1595393591.058,167.480,-24.902,-2.441,-5.859,0.000,0
1595393591.062,-111.328,-26.367,-5.371,-21.973,0.000,0
1595393591.066,-205.078,-28.809,-7.812,-28.320,0.000,0
1595393591.070,54.688,-32.227,-9.277,-19.531,0.000,0
1595393591.074,203.125,-29.297,-6.836,-13.184,0.000,0
1595393591.078,-27.344,-25.879,-7.812,-22.461,0.000,0
1595393591.082,-220.703,-27.832,-13.184,-39.062,0.000,0
1595393591.086,-36.133,-26.367,-11.230,-37.109,0.000,0
1595393591.090,178.223,-24.902,-17.090,-18.555,0.000,0
1595393591.094,48.340,-26.855,-21.484,-13.672,0.000,0
1595393591.097,-192.871,-29.785,-20.996,-31.738,0.000,0
1595393591.101,-114.746,-33.691,-24.902,-40.527,0.000,0
1595393591.105,151.367,-31.738,-24.414,-35.645,0.000,0
1595393591.109,111.816,-31.250,-27.344,-34.180,0.000,0
1595393591.113,-162.109,-32.715,-25.879,-30.762,0.000,0
1595393591.117,-177.246,-35.645,-20.020,-29.785,0.000,0
1595393591.121,90.332,-37.109,-16.602,-27.832,0.000,0
1595393591.125,165.527,-34.180,-15.137,-19.531,0.000,0
1595393591.129,-85.938,-31.738,-16.602,-25.391,0.000,0
1595393591.133,-203.613,-27.832,-19.043,-32.227,0.000,0
1595393591.136,22.949,-21.484,-17.090,-24.902,0.000,0
1595393591.140,185.059,-21.484,-18.555,-20.508,0.000,0
1595393591.144,-11.719,-28.809,-18.066,-24.414,0.000,0
1595393591.148,-218.262,-33.691,-15.625,-37.598,0.000,0
1595393591.152,-61.035,-31.738,-15.625,-43.945,0.000,0
1595393591.156,181.641,-30.762,-14.160,-33.203,0.000,0
1595393591.160,68.848,-30.762,-13.184,-24.414,0.000,0
1595393591.164,-187.988,-28.320,-10.742,-24.414,0.000,0
1595393591.168,-118.164,-26.855,-8.789,-29.785,0.000,0
1595393591.172,155.762,-24.902,-10.742,-29.297,0.000,0
1595393591.176,139.648,-27.832,-15.625,-28.809,0.000,0
1595393591.179,-146.973,-33.203,-19.531,-35.645,0.000,0
1595393591.183,-193.848,-31.738,-20.996,-42.480,0.000,0
1595393591.187,78.613,-21.973,-17.090,-31.738,0.000,0
1595393591.191,175.293,-18.555,-7.812,-16.113,0.000,0
1595393591.195,-69.336,-20.020,-6.836,-20.020,0.000,0
1595393591.199,-207.520,-20.508,-10.742,-30.762,0.000,0
1595393591.203,13.672,-22.461,-8.301,-24.414,0.000,0
1595393591.207,196.777,-23.438,-2.930,-8.789,0.000,0
1595393591.211,19.043,-24.414,-1.953,-10.742,0.000,0
1595393591.215,-198.242,-23.438,-5.859,-19.043,0.000,0
1595393591.219,-72.266,-21.484,-11.719,-27.344,0.000,0
1595393591.222,173.340,-21.484,-9.277,-19.043,0.000,0
1595393591.226,87.402,-23.926,-8.301,-11.230,0.000,0
1595393591.230,-186.523,-19.043,-11.230,-22.949,0.000,0
1595393591.234,-149.902,-19.043,-13.672,-32.715,0.000,0
1595393591.238,133.789,-27.832,-10.742,-16.602,0.000,0
1595393591.242,126.465,-30.273,-11.230,-10.742,0.000,0
1595393591.246,-153.809,-29.297,-13.672,-33.203,0.000,0
1595393591.250,-197.754,-30.762,-12.207,-41.992,0.000,0
1595393591.254,63.477,-28.320,-16.602,-39.551,0.000,0
1595393591.258,187.988,-24.902,-21.973,-33.203,0.000,0
1595393591.261,-43.945,-23.926,-23.926,-32.715,0.000,0
1595393591.265,-211.426,-26.855,-26.367,-36.621,0.000,0
1595393591.269,-19.043,-28.320,-23.438,-39.551,0.000,0
1595393591.273,176.270,-31.250,-24.414,-36.621,0.000,0
1595393591.277,24.414,-34.668,-27.344,-30.762,0.000,0
1595393591.281,-207.520,-31.738,-20.020,-33.691,0.000,0
1595393591.285,-104.980,-29.785,-16.602,-36.133,0.000,0
1595393591.289,158.691,-26.855,-16.602,-29.785,0.000,0
1595393591.293,105.469,-25.879,-15.137,-23.438,0.000,0
1595393591.297,-169.922,-30.273,-17.578,-24.902,0.000,0
1595393591.301,-161.621,-29.785,-19.043,-33.203,0.000,0
1595393591.304,120.117,-23.926,-17.578,-30.762,0.000,0
1595393591.308,167.969,-26.367,-19.531,-21.484,0.000,0
1595393591.312,-98.633,-26.367,-18.555,-24.902,0.000,0
1595393591.316,-194.824,-23.438,-16.602,-28.809,0.000,0
1595393591.320,41.504,-27.344,-16.113,-25.391,0.000,0
1595393591.324,174.316,-27.832,-17.578,-30.762,0.000,0
1595393591.328,-27.344,-28.809,-24.902,-27.344,0.000,0
1595393591.332,-210.938,-32.715,-29.785,-29.297,0.000,0
1595393591.336,-44.922,-31.738,-24.414,-42.969,0.000,0
1595393591.340,178.223,-26.855,-17.090,-29.785,0.000,0
1595393591.344,50.293,-22.949,-19.531,-10.254,0.000,0
1595393591.347,-190.918,-26.367,-21.973,-22.949,0.000,0
1595393591.351,-103.516,-28.809,-22.461,-45.410,0.000,0
1595393591.355,156.738,-29.297,-25.879,-40.527,0.000,0
1595393591.359,117.188,-30.762,-25.391,-27.344,0.000,0
1595393591.363,-157.715,-34.668,-28.320,-35.645,0.000,0
1595393591.367,-180.664,-40.039,-33.691,-46.875,0.000,0
1595393591.371,80.566,-42.480,-37.598,-46.387,0.000,0
1595393591.375,149.414,-40.039,-35.156,-33.691,0.000,0
1595393591.379,-106.934,-38.086,-33.691,-37.598,0.000,0
1595393591.383,-228.027,-36.621,-31.250,-50.781,0.000,0
1595393591.386,14.160,-35.156,-22.949,-36.621,0.000,0
1595393591.390,181.152,-38.086,-20.996,-29.785,0.000,0
1595393591.394,-19.531,-36.621,-20.996,-38.086,0.000,0
1595393591.398,-215.820,-38.574,-15.625,-42.969,0.000,0
1595393591.402,-59.570,-41.504,-18.066,-47.363,0.000,0
1595393591.406,170.898,-37.109,-17.090,-39.062,0.000,0
1595393591.410,52.246,-37.598,-13.184,-31.738,0.000,0
1595393591.414,-204.590,-41.016,-20.020,-39.551,0.000,0
1595393591.418,-140.625,-39.551,-21.973,-45.410,0.000,0
1595393591.422,127.441,-35.156,-15.625,-39.062,0.000,0
1595393591.426,112.305,-34.180,-9.766,-34.180,0.000,0
1595393591.429,-168.457,-41.016,-12.695,-38.574,0.000,0
1595393591.433,-208.496,-41.504,-16.113,-43.457,0.000,0
1595393591.437,63.965,-36.621,-15.625,-38.574,0.000,0
1595393591.441,158.203,-31.738,-18.066,-30.273,0.000,0
1595393591.445,-87.891,-31.738,-20.508,-28.320,0.000,0
1595393591.449,-229.980,-38.574,-20.996,-46.387,0.000,0
1595393591.453,-12.695,-42.480,-18.555,-53.711,0.000,0
1595393591.457,174.316,-35.645,-15.625,-36.133,0.000,0
1595393591.461,8.301,-32.227,-11.719,-26.367,0.000,0
1595393591.465,-207.520,-41.016,-13.184,-30.273,0.000,0
1595393591.469,-65.430,-36.621,-14.160,-39.551,0.000,0
1595393591.472,175.293,-30.273,-13.672,-38.574,0.000,0
1595393591.476,70.801,-37.109,-20.020,-30.762,0.000,0
1595393591.480,-188.965,-36.133,-21.973,-34.180,0.000,0
1595393591.484,-148.438,-30.762,-24.902,-43.457,0.000,0
1595393591.488,123.535,-33.203,-26.367,-41.504,0.000,0
1595393591.492,145.020,-36.133,-18.555,-24.902,0.000,0
1595393591.496,-123.047,-38.086,-14.160,-23.926,0.000,0
1595393591.500,-195.801,-40.527,-19.531,-33.691,0.000,0
1595393591.504,63.965,-37.109,-17.090,-36.621,0.000,0
1595393591.508,189.941,-32.715,-14.160,-19.043,0.000,0
1595393591.511,-46.875,-32.227,-16.602,-13.184,0.000,0
1595393591.515,-211.914,-33.691,-11.719,-32.715,0.000,0
1595393591.519,-18.555,-30.762,-6.836,-39.551,0.000,0
1595393591.523,180.664,-31.738,-7.812,-25.879,0.000,0
1595393591.527,35.156,-32.715,-5.371,-20.020,0.000,0
1595393591.531,-197.754,-34.180,-4.883,-30.762,0.000,0
1595393591.535,-84.473,-35.156,-7.324,-33.203,0.000,0
1595393591.539,179.688,-31.250,-9.766,-26.367,0.000,0
1595393591.543,106.445,-33.203,-14.160,-23.438,0.000,0
1595393591.547,-173.340,-32.227,-13.184,-24.414,0.000,0
1595393591.551,-166.504,-32.227,-13.672,-27.344,0.000,0
1595393591.554,107.910,-33.203,-11.719,-28.320,0.000,0
1595393591.558,156.738,-34.180,-10.742,-32.715,0.000,0
1595393591.562,-113.281,-36.133,-15.625,-39.062,0.000,0
1595393591.566,-213.379,-39.062,-16.113,-42.969,0.000,0
1595393591.570,37.109,-38.086,-11.719,-32.227,0.000,0
1595393591.574,177.246,-34.180,-10.254,-28.320,0.000,0
1595393591.578,-41.504,-35.645,-11.719,-30.762,0.000,0
1595393591.582,-224.121,-37.598,-13.184,-29.785,0.000,0
1595393591.586,-45.410,-39.062,-13.672,-37.109,0.000,0
1595393591.590,182.617,-34.668,-12.695,-18.555,0.000,0
1595393591.594,51.270,-30.273,-13.672,-7.324,0.000,0
1595393591.597,-201.172,-34.180,-16.113,-23.438,0.000,0
1595393591.601,-115.723,-35.645,-17.090,-28.809,0.000,0
1595393591.605,153.809,-34.180,-15.137,-17.578,0.000,0
1595393591.609,116.211,-39.551,-18.066,-20.996,0.000,0
1595393591.613,-172.852,-46.875,-18.066,-31.250,0.000,0
1595393591.617,-186.523,-42.480,-18.066,-37.109,0.000,0
1595393591.621,93.262,-34.668,-18.066,-39.551,0.000,0
1595393591.625,160.156,-34.668,-13.672,-25.879,0.000,0
1595393591.629,-94.238,-37.598,-12.695,-24.414,0.000,0
1595393591.633,-211.914,-39.551,-17.578,-37.109,0.000,0
1595393591.636,16.602,-35.645,-18.066,-40.527,0.000,0
1595393591.640,178.711,-37.109,-15.625,-28.809,0.000,0
1595393591.644,-20.020,-42.480,-19.531,-30.762,0.000,0
1595393591.648,-216.309,-44.434,-18.555,-43.457,0.000,0
1595393591.652,-59.082,-35.645,-13.184,-34.668,0.000,0
1595393591.656,165.039,-28.320,-15.137,-25.391,0.000,0
1595393591.660,50.781,-31.738,-20.020,-26.855,0.000,0
1595393591.664,-200.195,-30.273,-18.555,-27.344,0.000,0
1595393591.668,-134.766,-27.344,-18.066,-35.645,0.000,0
1595393591.672,133.789,-34.180,-22.461,-36.133,0.000,0
1595393591.676,127.930,-33.203,-21.484,-32.715,0.000,0
1595393591.679,-144.531,-31.738,-18.555,-36.133,0.000,0
1595393591.683,-197.754,-35.645,-20.020,-43.457,0.000,0
1595393591.687,55.664,-31.250,-20.996,-37.109,0.000,0
1595393591.691,159.180,-28.809,-24.414,-28.320,0.000,0
1595393591.695,-74.707,-31.250,-28.809,-25.391,0.000,0
1595393591.699,-212.891,-29.785,-29.785,-25.879,0.000,0
1595393591.703,5.859,-28.320,-24.902,-28.320,0.000,0
1595393591.707,187.500,-27.344,-23.926,-23.926,0.000,0
1595393591.711,11.230,-25.879,-26.367,-21.484,0.000,0
1595393591.715,-207.520,-29.785,-28.809,-30.273,0.000,0
1595393591.719,-74.219,-31.738,-27.832,-31.738,0.000,0
1595393591.722,176.758,-28.809,-22.949,-23.926,0.000,0
1595393591.726,88.867,-29.297,-19.531,-18.066,0.000,0
1595393591.730,-185.059,-39.551,-24.902,-27.832,0.000,0
1595393591.734,-145.996,-38.086,-28.809,-36.133,0.000,0
1595393591.738,137.207,-30.762,-21.973,-23.438,0.000,0
1595393591.742,141.113,-33.203,-24.902,-16.602,0.000,0
1595393591.746,-148.926,-34.180,-28.320,-27.344,0.000,0
1595393591.750,-214.844,-31.738,-20.996,-27.344,0.000,0
1595393591.754,47.852,-31.250,-21.973,-25.391,0.000,0
1595393591.758,172.852,-30.273,-24.414,-27.832,0.000,0
1595393591.761,-57.617,-32.715,-25.879,-28.320,0.000,0
1595393591.765,-227.539,-34.668,-25.391,-26.855,0.000,0
1595393591.769,-24.414,-29.785,-19.531,-23.438,0.000,0
1595393591.773,184.082,-26.855,-19.043,-20.996,0.000,0
1595393591.777,36.133,-29.785,-23.438,-16.113,0.000,0
1595393591.781,-200.195,-37.109,-26.855,-23.438,0.000,0
1595393591.785,-98.633,-41.016,-30.762,-37.598,0.000,0
1595393591.789,155.273,-40.527,-32.715,-41.016,0.000,0
1595393591.793,92.285,-40.039,-28.809,-26.855,0.000,0
1595393591.797,-178.223,-44.434,-27.832,-23.438,0.000,0
1595393591.801,-165.527,-42.969,-25.391,-40.527,0.000,0
1595393591.804,117.188,-35.156,-16.602,-33.203,0.000,0
1595393591.808,159.180,-31.250,-11.230,-23.926,0.000,0
1595393591.812,-109.375,-34.180,-17.578,-29.297,0.000,0
1595393591.816,-199.219,-34.180,-22.949,-34.180,0.000,0
1595393591.820,35.156,-31.738,-23.438,-27.344,0.000,0
1595393591.824,169.434,-29.297,-21.973,-17.578,0.000,0
1595393591.828,-40.527,-36.133,-19.531,-26.367,0.000,0
1595393591.832,-220.215,-41.016,-19.043,-31.738,0.000,0
1595393591.836,-47.852,-35.645,-18.066,-28.809,0.000,0
1595393591.840,166.016,-34.180,-19.531,-25.879,0.000,0
1595393591.844,43.945,-35.645,-19.043,-19.043,0.000,0
1595393591.847,-198.730,-35.645,-19.043,-28.809,0.000,0
1595393591.851,-118.652,-35.156,-20.996,-34.668,0.000,0
1595393591.855,148.438,-38.086,-22.461,-31.250,0.000,0
1595393591.859,116.211,-37.109,-20.020,-26.367,0.000,0
1595393591.863,-159.668,-32.227,-20.020,-26.367,0.000,0
1595393591.867,-178.711,-29.785,-21.484,-29.297,0.000,0
1595393591.871,93.262,-31.738,-21.484,-23.926,0.000,0
1595393591.875,160.645,-33.691,-24.414,-26.855,0.000,0
1595393591.879,-95.703,-34.180,-21.484,-32.715,0.000,0
1595393591.883,-217.773,-38.574,-20.508,-34.180,0.000,0
1595393591.886,6.348,-38.086,-24.902,-36.621,0.000,0
1595393591.890,171.387,-31.250,-25.391,-34.668,0.000,0
1595393591.894,-15.137,-30.762,-25.879,-32.227,0.000,0
1595393591.898,-222.168,-35.156,-29.785,-38.574,0.000,0
1595393591.902,-65.918,-34.668,-27.832,-38.086,0.000,0
1595393591.906,177.734,-26.367,-24.902,-28.320,0.000,0
1595393591.910,63.965,-24.902,-25.879,-25.391,0.000,0
1595393591.914,-202.148,-34.668,-29.785,-34.180,0.000,0
1595393591.918,-133.301,-36.621,-28.809,-36.133,0.000,0
1595393591.922,142.090,-34.668,-25.391,-26.367,0.000,0
1595393591.926,121.582,-35.645,-24.414,-20.996,0.000,0
1595393591.929,-145.020,-33.691,-20.996,-18.555,0.000,0
1595393591.933,-177.734,-36.133,-20.020,-18.555,0.000,0
1595393591.937,85.938,-34.180,-23.438,-12.207,0.000,0
1595393591.941,178.223,-32.715,-23.926,-4.395,0.000,0
1595393591.945,-69.336,-40.039,-27.344,-11.719,0.000,0
1595393591.949,-214.355,-41.016,-31.738,-27.344,0.000,0
1595393591.953,-1.465,-34.180,-32.715,-29.785,0.000,0
1595393591.957,184.570,-33.691,-28.809,-19.531,0.000,0
1595393591.961,11.230,-34.668,-23.438,-16.113,0.000,0
1595393591.965,-210.938,-30.762,-24.414,-21.973,0.000,0
1595393591.969,-77.148,-28.809,-20.996,-21.973,0.000,0
1595393591.972,174.316,-29.785,-18.555,-21.484,0.000,0
1595393591.976,80.566,-34.668,-28.320,-26.855,0.000,0
1595393591.980,-188.965,-36.133,-29.297,-34.668,0.000,0
1595393591.984,-144.043,-26.855,-19.043,-39.062,0.000,0
1595393591.988,140.625,-20.508,-14.160,-30.762,0.000,0
1595393591.992,154.785,-23.926,-18.555,-27.344,0.000,0
1595393591.996,-109.375,-24.902,-18.066,-24.414,0.000,0
1595393592.000,-177.246,-24.902,-14.648,-26.367,0.000,0
1595393592.004,64.941,-26.367,-18.555,-27.344,0.000,0
1595393592.008,185.059,-25.879,-24.414,-18.555,0.000,0
1595393592.011,-44.434,-23.926,-23.926,-21.973,0.000,0
1595393592.015,-217.773,-26.367,-25.391,-36.133,0.000,0
1595393592.019,-24.414,-29.297,-28.320,-43.457,0.000,0
1595393592.023,182.129,-27.344,-23.438,-27.344,0.000,0
1595393592.027,30.762,-29.785,-21.484,-21.484,0.000,0
1595393592.031,-209.473,-33.203,-27.344,-43.945,0.000,0
1595393592.035,-107.910,-27.344,-29.785,-44.434,0.000,0
1595393592.039,157.715,-24.414,-20.996,-29.297,0.000,0
1595393592.043,103.516,-26.367,-20.020,-29.785,0.000,0
1595393592.047,-181.152,-33.691,-23.438,-37.109,0.000,0
1595393592.051,-180.664,-40.527,-17.578,-46.387,0.000,0
1595393592.054,110.352,-37.598,-13.184,-38.086,0.000,0
1595393592.058,163.574,-34.668,-12.207,-23.926,0.000,0
1595393592.062,-122.070,-37.109,-11.230,-31.738,0.000,0
1595393592.066,-202.148,-39.062,-15.137,-47.363,0.000,0
1595393592.070,57.129,-31.250,-15.137,-43.457,0.000,0
1595393592.074,180.176,-22.949,-14.648,-20.020,0.000,0
1595393592.078,-30.762,-25.879,-15.625,-18.066,0.000,0
1595393592.082,-213.379,-26.367,-11.719,-33.203,0.000,0
1595393592.086,-32.227,-22.461,-13.184,-43.457,0.000,0
1595393592.090,192.383,-21.484,-14.648,-35.645,0.000,0
1595393592.094,63.965,-23.926,-9.277,-20.508,0.000,0
1595393592.097,-185.547,-25.391,-16.602,-30.762,0.000,0
1595393592.101,-105.957,-21.973,-26.855,-40.527,0.000,0
1595393592.105,163.574,-18.555,-24.414,-26.855,0.000,0
1595393592.109,126.953,-17.090,-23.438,-19.531,0.000,0
1595393592.113,-157.715,-21.484,-25.391,-18.066,0.000,0
1595393592.117,-180.176,-25.391,-24.902,-26.855,0.000,0
1595393592.121,104.492,-25.879,-23.926,-28.809,0.000,0
1595393592.125,174.316,-28.320,-22.461,-10.254,0.000,0
1595393592.129,-91.797,-29.297,-19.531,-8.301,0.000,0
1595393592.133,-210.449,-33.691,-16.602,-15.625,0.000,0
1595393592.136,17.090,-37.109,-17.578,-21.973,0.000,0
1595393592.140,181.641,-33.203,-19.043,-16.113,0.000,0
1595393592.144,-9.766,-33.691,-23.438,-18.066,0.000,0
1595393592.148,-215.820,-34.180,-23.438,-37.109,0.000,0
1595393592.152,-67.383,-32.715,-20.020,-38.086,0.000,0
1595393592.156,169.434,-31.250,-20.020,-27.344,0.000,0
1595393592.160,68.359,-29.297,-17.090,-20.996,0.000,0
1595393592.164,-191.895,-31.738,-20.020,-25.391,0.000,0
1595393592.168,-145.020,-36.133,-21.973,-30.273,0.000,0
1595393592.172,134.277,-37.109,-19.043,-23.438,0.000,0
1595393592.176,135.254,-29.785,-14.648,-26.367,0.000,2
1595393592.179,-145.020,-34.668,-16.602,-38.086,0.000,0
1595393592.183,-187.012,-38.574,-19.043,-42.480,0.000,0
1595393592.187,77.637,-32.227,-20.508,-39.062,0.000,0
1595393592.191,171.387,-32.715,-20.996,-27.832,0.000,0
1595393592.195,-76.660,-35.156,-19.531,-24.902,0.000,0
1595393592.199,-218.262,-29.297,-22.461,-35.645,0.000,0
1595393592.203,-0.977,-25.879,-23.926,-38.574,0.000,0
1595393592.207,193.359,-24.414,-19.531,-21.484,0.000,0
1595393592.211,19.531,-23.926,-13.672,-12.207,0.000,0
1595393592.215,-209.961,-27.344,-15.625,-26.855,0.000,0
1595393592.219,-72.266,-26.367,-18.066,-40.039,0.000,0
1595393592.222,170.898,-24.414,-18.555,-23.438,0.000,0
1595393592.226,83.984,-27.832,-23.438,-14.648,0.000,0
1595393592.230,-179.688,-32.227,-31.250,-24.902,0.000,0
1595393592.234,-144.531,-29.785,-31.250,-28.320,0.000,0
1595393592.238,138.672,-25.879,-26.367,-25.879,0.000,0
1595393592.242,158.203,-27.832,-20.508,-20.020,0.000,0
1595393592.246,-123.047,-27.832,-17.090,-22.949,0.000,0
1595393592.250,-200.684,-25.879,-17.578,-26.367,0.000,0
1595393592.254,55.664,-27.832,-16.113,-26.367,0.000,0
1595393592.258,173.340,-30.273,-18.555,-20.508,0.000,0
1595393592.261,-59.570,-28.320,-28.320,-24.902,0.000,0
1595393592.265,-222.168,-25.879,-28.320,-42.480,0.000,0
1595393592.269,-29.785,-23.926,-24.902,-43.457,0.000,0
1595393592.273,176.758,-22.949,-25.879,-31.250,0.000,0
1595393592.277,34.180,-22.949,-24.902,-18.555,0.000,0
1595393592.281,-204.590,-26.855,-26.367,-27.832,0.000,0
1595393592.285,-98.145,-28.320,-25.879,-31.250,0.000,0
1595393592.289,160.645,-24.902,-20.020,-17.090,0.000,0
1595393592.293,103.027,-25.391,-15.137,-12.695,0.000,0
1595393592.297,-169.434,-29.785,-17.578,-23.438,0.000,0
1595393592.301,-159.180,-29.785,-19.531,-26.367,0.000,0
1595393592.304,119.141,-30.273,-20.996,-17.578,0.000,0
1595393592.308,166.504,-28.809,-21.973,-14.648,0.000,0
1595393592.312,-97.168,-27.344,-20.996,-17.090,0.000,0
1595393592.316,-200.195,-34.668,-22.949,-23.438,0.000,0
1595393592.320,36.133,-32.227,-20.996,-18.555,0.000,0
1595393592.324,178.223,-28.809,-17.578,-20.020,0.000,0
1595393592.328,-29.785,-33.203,-18.066,-26.855,0.000,0
1595393592.332,-220.215,-38.574,-23.926,-35.156,0.000,0
1595393592.336,-52.246,-34.668,-22.949,-43.457,0.000,0
1595393592.340,167.969,-29.297,-17.090,-29.297,0.000,0
1595393592.344,39.062,-33.691,-10.742,-14.160,0.000,0
1595393592.347,-212.402,-41.504,-14.648,-23.926,0.000,0
1595393592.351,-124.512,-40.527,-13.672,-32.715,0.000,0
1595393592.355,156.250,-25.879,-5.371,-18.555,0.000,0
1595393592.359,126.465,-21.973,-1.465,-9.277,0.000,0
1595393592.363,-155.762,-30.273,-6.836,-15.625,0.000,0
1595393592.367,-184.082,-32.715,-12.207,-26.367,0.000,0
1595393592.371,90.332,-26.855,-7.812,-24.414,0.000,0
1595393592.375,168.457,-22.461,-5.859,-16.602,0.000,0
1595393592.379,-84.961,-28.320,-14.648,-29.297,0.000,0
1595393592.383,-206.055,-29.785,-22.461,-35.156,0.000,0
1595393592.386,14.648,-25.879,-21.484,-22.949,0.000,0
1595393592.390,178.223,-28.320,-19.043,-8.301,0.000,0
1595393592.394,-11.230,-31.250,-19.043,-15.625,0.000,0
1595393592.398,-215.332,-36.621,-18.555,-33.691,0.000,0
1595393592.402,-68.848,-38.574,-20.996,-31.250,0.000,0
1595393592.406,158.203,-36.621,-24.414,-26.367,0.000,0
1595393592.410,42.480,-39.551,-22.461,-23.926,0.000,0
1595393592.414,-212.891,-38.086,-20.508,-34.180,0.000,0
1595393592.418,-141.602,-29.297,-19.043,-40.527,0.000,0
1595393592.422,135.742,-27.344,-18.066,-28.809,0.000,0
1595393592.426,125.488,-31.738,-21.484,-27.344,0.000,0
1595393592.429,-140.137,-35.156,-21.973,-21.484,0.000,0
1595393592.433,-192.383,-30.762,-17.578,-32.227,0.000,0
1595393592.437,63.965,-29.785,-16.113,-34.668,0.000,0
1595393592.441,167.480,-31.250,-16.602,-20.508,0.000,0
1595393592.445,-75.195,-30.273,-16.113,-23.926,0.000,0
1595393592.449,-214.355,-36.133,-20.508,-40.527,0.000,0
1595393592.453,-8.789,-40.527,-19.531,-41.504,0.000,0
1595393592.457,168.945,-34.668,-16.113,-30.273,0.000,0
1595393592.461,6.836,-27.832,-16.113,-28.320,0.000,0
1595393592.465,-210.449,-33.691,-17.090,-30.273,0.000,0
1595393592.469,-83.984,-34.668,-16.113,-22.949,0.000,0
1595393592.472,165.527,-28.809,-18.555,-16.113,0.000,0
1595393592.476,81.055,-30.273,-16.113,-19.531,0.000,0
1595393592.480,-186.035,-36.133,-20.996,-27.344,0.000,0
1595393592.484,-151.367,-35.156,-26.367,-36.621,0.000,0
1595393592.488,121.582,-35.156,-24.902,-36.621,0.000,0
1595393592.492,142.090,-36.621,-27.832,-30.273,0.000,0
1595393592.496,-127.930,-34.180,-26.367,-30.762,0.000,0
1595393592.500,-205.566,-36.133,-22.949,-42.969,0.000,0
1595393592.504,53.223,-35.645,-19.531,-45.410,0.000,0
1595393592.508,186.035,-36.621,-18.066,-31.250,0.000,0
1595393592.511,-42.480,-37.109,-19.531,-35.156,0.000,0
1595393592.515,-218.262,-41.504,-21.484,-41.016,0.000,0
1595393592.519,-39.551,-41.992,-26.367,-42.969,0.000,0
1595393592.523,159.668,-38.574,-28.320,-42.969,0.000,0
1595393592.527,15.137,-38.086,-23.438,-26.855,0.000,0
1595393592.531,-218.750,-38.574,-23.438,-27.832,0.000,0
1595393592.535,-111.816,-32.715,-23.926,-41.504,0.000,0
1595393592.539,149.902,-27.832,-17.578,-27.832,0.000,0
1595393592.543,95.703,-30.273,-15.137,-14.160,0.000,0
1595393592.547,-179.688,-33.691,-15.137,-25.391,0.000,0
1595393592.551,-174.316,-32.715,-11.230,-32.715,0.000,0
1595393592.554,108.887,-28.320,-6.836,-16.113,0.000,0
1595393592.558,156.250,-24.902,-12.695,-10.254,0.000,0
1595393592.562,-106.934,-21.973,-16.602,-19.531,0.000,0
1595393592.566,-203.613,-21.973,-17.578,-31.250,0.000,0
1595393592.570,37.109,-21.973,-14.160,-27.832,0.000,0
1595393592.574,186.523,-17.090,-8.789,-12.695,0.000,0
1595393592.578,-36.621,-25.391,-15.137,-18.555,0.000,0
1595393592.582,-211.426,-37.109,-20.020,-37.109,0.000,0
1595393592.586,-26.855,-39.551,-21.484,-42.480,0.000,0
1595393592.590,176.758,-34.668,-20.020,-27.344,0.000,0
1595393592.594,46.875,-31.738,-15.137,-17.090,0.000,0
1595393592.597,-202.148,-35.156,-20.020,-33.203,0.000,0
1595393592.601,-124.023,-38.574,-23.438,-41.504,0.000,0
1595393592.605,145.996,-39.062,-21.973,-27.832,0.000,0
1595393592.609,119.141,-38.086,-18.555,-20.508,0.000,0
1595393592.613,-154.297,-33.203,-20.020,-15.137,0.000,0
1595393592.617,-160.156,-23.926,-18.066,-10.254,0.000,0
1595393592.621,113.281,-24.902,-11.230,-9.277,0.000,0
1595393592.625,173.828,-31.250,-14.160,-18.066,0.000,0
1595393592.629,-80.078,-31.250,-15.137,-30.273,0.000,0
1595393592.633,-213.867,-34.180,-13.184,-35.645,0.000,0
1595393592.636,3.418,-34.668,-12.207,-38.574,0.000,0
1595393592.640,173.340,-34.180,-9.766,-31.738,0.000,0
1595393592.644,-16.602,-38.086,-5.859,-16.113,0.000,0
1595393592.648,-231.445,-45.898,-6.836,-22.949,0.000,0
1595393592.652,-78.613,-48.340,-8.789,-28.809,0.000,0
1595393592.656,175.781,-41.016,-8.301,-19.043,0.000,0
1595393592.660,66.895,-37.109,-7.324,-19.043,0.000,0
1595393592.664,-200.684,-37.598,-10.254,-25.391,0.000,0
1595393592.668,-140.137,-38.574,-15.625,-30.762,0.000,0
1595393592.672,138.672,-38.086,-12.695,-26.367,0.000,0
1595393592.676,139.160,-36.621,-14.648,-18.066,0.000,0
1595393592.679,-137.695,-34.180,-21.973,-23.926,0.000,0
1595393592.683,-189.941,-33.691,-19.043,-41.992,0.000,0
1595393592.687,75.195,-33.691,-12.695,-35.645,0.000,0
1595393592.691,173.828,-31.250,-14.648,-19.043,0.000,0
1595393592.695,-68.848,-31.738,-17.578,-13.184,0.000,0
1595393592.699,-214.844,-35.156,-17.090,-21.973,0.000,0
1595393592.703,-5.371,-32.715,-16.113,-27.344,0.000,0
1595393592.707,182.129,-30.762,-14.648,-9.766,0.000,0
1595393592.711,11.719,-39.551,-17.090,-16.602,0.000,0
1595393592.715,-205.078,-39.062,-18.555,-31.250,0.000,0
1595393592.719,-75.195,-39.062,-15.625,-26.367,0.000,0
1595393592.722,166.992,-36.133,-12.207,-13.672,0.000,0
1595393592.726,83.496,-29.785,-11.719,-12.207,0.000,0
1595393592.730,-183.594,-29.297,-13.184,-22.461,0.000,0
1595393592.734,-149.902,-26.855,-13.184,-29.297,0.000,0
1595393592.738,124.023,-24.414,-11.719,-26.367,0.000,0
1595393592.742,143.555,-22.949,-13.672,-16.602,0.000,0
1595393592.746,-125.000,-21.484,-11.719,-24.902,0.000,0
1595393592.750,-206.543,-28.320,-13.672,-31.250,0.000,0
1595393592.754,53.223,-28.320,-12.207,-25.879,0.000,0
1595393592.758,178.223,-26.367,-11.719,-29.297,0.000,0
1595393592.761,-56.641,-35.156,-18.066,-35.156,0.000,0
1595393592.765,-217.773,-30.762,-15.137,-40.039,0.000,0
1595393592.769,-25.879,-23.926,-16.113,-35.645,0.000,0
1595393592.773,175.293,-24.902,-20.020,-14.160,0.000,0
1595393592.777,34.668,-20.508,-21.973,-12.207,0.000,0
1595393592.781,-201.172,-22.949,-24.902,-33.203,0.000,0
1595393592.785,-101.562,-28.320,-20.020,-29.785,0.000,0
1595393592.789,158.691,-32.227,-15.625,-25.391,0.000,0
1595393592.793,110.352,-28.809,-13.184,-25.391,0.000,0
1595393592.797,-163.574,-25.879,-10.254,-20.020,0.000,0
1595393592.801,-160.645,-29.297,-8.301,-20.996,0.000,0
1595393592.804,118.652,-23.926,-9.277,-19.043,0.000,0
1595393592.808,165.039,-25.391,-9.766,-18.066,0.000,0
1595393592.812,-97.168,-36.621,-12.695,-25.391,0.000,0
1595393592.816,-207.031,-39.551,-13.184,-37.598,0.000,0
1595393592.820,33.691,-34.668,-8.301,-30.273,0.000,0
1595393592.824,187.988,-29.785,-4.883,-28.320,0.000,0
1595393592.828,-35.156,-36.133,-6.348,-33.203,0.000,0
1595393592.832,-229.492,-41.016,-10.742,-40.039,0.000,0
1595393592.836,-56.641,-34.180,-7.812,-49.805,0.000,0
1595393592.840,167.969,-31.738,-6.348,-35.156,0.000,0
1595393592.844,49.805,-37.109,-9.277,-30.273,0.000,0
1595393592.847,-202.637,-39.062,-15.137,-40.527,0.000,0
1595393592.851,-132.812,-38.574,-12.207,-40.039,0.000,0
1595393592.855,136.230,-37.109,-5.859,-32.715,0.000,0
1595393592.859,116.211,-29.297,-5.859,-27.344,0.000,0
1595393592.863,-156.250,-28.809,-3.418,-26.367,0.000,0
1595393592.867,-182.617,-33.691,-9.277,-25.879,0.000,0
1595393592.871,89.844,-31.250,-14.648,-26.367,0.000,0
1595393592.875,162.598,-26.855,-6.348,-17.090,0.000,0
1595393592.879,-90.820,-27.344,-1.953,-15.625,0.000,0
1595393592.883,-215.332,-29.785,-6.836,-28.809,0.000,0
1595393592.886,6.836,-33.691,-10.742,-35.645,0.000,0
1595393592.890,183.594,-33.203,-4.395,-28.809,0.000,0
1595393592.894,0.977,-30.762,1.465,-19.531,0.000,0
1595393592.898,-210.938,-32.227,-2.930,-25.879,0.000,0
1595393592.902,-62.500,-31.738,-10.742,-32.227,0.000,0
1595393592.906,167.969,-28.320,-9.766,-24.414,0.000,0
1595393592.910,62.012,-27.344,-9.766,-14.648,0.000,0
1595393592.914,-170.410,-32.715,-12.207,-17.090,0.000,0
1595393592.918,-118.652,-33.203,-11.719,-30.762,0.000,0
1595393592.922,139.648,-26.367,-6.348,-29.785,0.000,0
1595393592.926,139.160,-26.367,-0.977,-21.484,0.000,0
1595393592.929,-133.789,-33.203,-2.930,-23.926,0.000,0
1595393592.933,-189.941,-37.598,-4.883,-33.691,0.000,0
1595393592.937,60.547,-38.086,-8.789,-41.016,0.000,0
1595393592.941,166.992,-39.551,-7.812,-26.855,0.000,0
1595393592.945,-62.988,-40.039,-7.812,-18.555,0.000,0
1595393592.949,-212.891,-33.691,-22.461,-35.156,0.000,0
1595393592.953,-3.418,-21.973,-27.344,-44.434,0.000,0
1595393592.957,185.059,-16.113,-16.113,-33.691,0.000,0
1595393592.961,13.672,-19.043,-14.648,-30.762,0.000,0
1595393592.965,-204.590,-21.973,-23.438,-44.434,0.000,0
1595393592.969,-82.520,-21.973,-26.855,-43.945,0.000,0
1595393592.972,163.086,-24.902,-29.297,-37.109,0.000,0
1595393592.976,87.891,-27.832,-29.297,-40.527,0.000,0
1595393592.980,-192.383,-27.832,-29.785,-38.574,0.000,0
1595393592.984,-154.297,-24.902,-28.809,-34.180,0.000,0
1595393592.988,136.719,-25.879,-25.391,-30.762,0.000,0
1595393592.992,150.391,-31.738,-25.879,-23.438,0.000,0
1595393592.996,-124.023,-29.785,-27.832,-18.555,0.000,0
1595393593.000,-201.660,-30.273,-27.832,-34.180,0.000,0
1595393593.004,58.105,-31.738,-22.949,-37.109,0.000,0
1595393593.008,192.383,-31.250,-22.949,-21.973,0.000,0
1595393593.011,-42.480,-28.809,-29.297,-22.949,0.000,0
1595393593.015,-214.844,-24.902,-28.320,-21.973,0.000,0
1595393593.019,-21.973,-26.855,-28.320,-28.809,0.000,0
1595393593.023,176.758,-33.691,-34.668,-35.156,0.000,0
